Time[sec]	Dyno_Speed[mph]	Dyno_Tractive_Effort[N]	Test_Cell_Temp[C]	Test_Cell_RH[%]	Phase_#	HV_Battery_Current[A]	HV_Battery_Voltage[V]	HV_Battery_SOC[%]	Accelerator_Pedal_Position[%]
-10.000	0.010	-12.504	33.823	48.681	0.000	-0.119	0.887	0.000	0.000
-9.900	0.010	-12.383	33.824	48.680	0.000	-0.116	1.095	0.000	0.000
-9.800	0.010	-12.406	33.822	48.679	0.000	-0.114	1.956	0.000	0.000
-9.700	0.010	-12.142	33.823	48.680	0.000	-0.102	2.891	56.463	0.000
-9.600	0.010	-12.284	33.823	48.681	0.000	-0.083	2.922	101.422	0.000
-9.500	0.010	-12.202	33.821	48.680	0.000	-0.055	2.957	102.300	0.000
-9.400	0.010	-12.290	33.823	48.681	0.000	-0.042	2.974	102.300	0.000
-9.300	0.010	-12.300	33.823	48.680	0.000	-0.048	2.993	102.300	0.000
-9.200	0.010	-12.268	33.825	48.680	0.000	-0.034	3.016	102.300	0.000
-9.100	0.009	-12.133	33.823	48.680	0.000	0.491	84.890	102.300	0.000
-9.000	0.010	-12.381	33.824	48.680	0.000	1.407	321.336	56.930	0.000
-8.900	0.009	-12.312	33.824	48.680	0.000	0.080	375.123	56.600	0.000
-8.800	0.010	-12.268	33.825	48.680	0.000	0.010	378.549	56.600	0.000
-8.700	0.010	-12.297	33.824	48.679	0.000	0.007	379.187	56.600	0.000
-8.600	0.009	-12.204	33.826	48.679	0.000	-0.001	379.187	56.600	0.000
-8.500	0.010	-12.352	33.826	48.678	0.000	-0.005	379.182	56.600	0.000
-8.400	0.009	-12.308	33.826	48.678	0.000	-0.000	379.180	56.600	0.000
-8.300	0.009	-12.332	33.826	48.678	0.000	-0.003	379.163	56.600	0.000
-8.200	0.009	-12.336	33.826	48.678	0.000	0.514	379.108	56.600	0.000
-8.100	0.010	-12.336	33.826	48.678	0.000	1.869	379.037	56.600	0.000
-8.000	0.010	-12.433	33.826	48.678	0.000	1.740	379.048	56.600	0.000
-7.900	0.010	-12.348	33.828	48.678	0.000	1.675	379.056	56.600	0.000
-7.800	0.010	-12.243	33.829	48.677	0.000	1.572	379.062	56.600	0.000
-7.700	0.010	-12.197	33.829	48.676	0.000	1.497	379.069	56.600	0.000
-7.600	0.010	-12.192	33.829	48.675	0.000	1.433	379.080	56.600	0.000
-7.500	0.010	-12.350	33.828	48.676	0.000	1.372	379.078	56.600	0.000
-7.400	0.010	-12.246	33.829	48.676	0.000	1.287	379.079	56.600	0.000
-7.300	0.010	-12.134	33.829	48.676	0.000	1.231	379.076	56.600	0.000
-7.200	0.010	-12.308	33.829	48.676	0.000	1.191	379.090	56.600	0.000
-7.100	0.009	-12.336	33.829	48.673	0.000	1.168	379.102	56.600	0.000
-7.000	0.010	-12.150	33.827	48.675	0.000	1.134	379.098	56.600	0.000
-6.900	0.010	-12.337	33.828	48.674	0.000	1.112	379.105	56.600	0.000
-6.800	0.010	-12.219	33.829	48.673	0.000	1.122	379.104	56.600	0.000
-6.700	0.010	-12.192	33.828	48.675	0.000	1.237	379.091	56.600	0.000
-6.600	0.009	-12.530	33.829	48.674	0.000	1.449	379.082	56.600	0.000
-6.500	0.010	-12.342	33.830	48.673	0.000	1.563	379.071	56.600	0.000
-6.400	0.010	-12.239	33.831	48.672	0.000	1.331	379.088	56.600	0.000
-6.300	0.011	-12.438	33.831	48.672	0.000	1.105	379.087	56.600	0.000
-6.200	0.009	-12.420	33.831	48.672	0.000	1.180	379.091	56.600	0.000
-6.100	0.010	-12.499	33.831	48.671	0.000	1.346	379.088	56.600	0.000
-6.000	0.010	-12.154	33.831	48.671	0.000	1.420	379.080	56.600	0.000
-5.900	0.010	-12.233	33.831	48.671	0.000	1.519	379.063	56.600	0.000
-5.800	0.010	-12.294	33.831	48.672	0.000	1.590	379.054	56.600	0.000
-5.700	0.010	-12.150	33.831	48.670	0.000	1.693	379.042	56.600	0.000
-5.600	0.010	-12.269	33.831	48.670	0.000	1.801	379.032	56.600	0.000
-5.500	0.010	-12.181	33.831	48.670	0.000	1.912	379.035	56.600	0.000
-5.400	0.010	-12.275	33.830	48.670	0.000	2.059	379.023	56.600	0.000
-5.300	0.010	-12.212	33.831	48.670	0.000	2.175	379.011	56.600	0.000
-5.200	0.009	-12.399	33.831	48.671	0.000	2.149	379.001	56.600	0.000
-5.100	0.009	-12.243	33.831	48.670	0.000	2.131	379.007	56.600	0.000
-5.000	0.010	-12.336	33.832	48.669	0.000	2.129	379.006	56.600	0.000
-4.900	0.011	-12.140	33.832	48.668	0.000	2.131	379.001	56.600	0.000
-4.800	0.010	-12.199	33.832	48.667	0.000	2.145	378.997	56.600	0.000
-4.700	0.010	-12.228	33.833	48.668	0.000	2.125	379.006	56.600	0.000
-4.600	0.010	-12.228	33.832	48.669	0.000	2.121	379.015	56.600	0.000
-4.500	0.010	-12.228	33.832	48.668	0.000	2.131	379.014	56.600	0.000
-4.400	0.010	-12.372	33.832	48.667	0.000	2.118	379.006	56.600	0.000
-4.300	0.010	-12.380	33.834	48.666	0.000	2.096	378.994	56.600	0.000
-4.200	0.010	-12.316	33.834	48.665	0.000	2.087	378.998	56.600	0.000
-4.100	0.010	-12.380	33.835	48.664	0.000	2.092	378.996	56.600	0.000
-4.000	0.010	-12.297	33.834	48.664	0.000	2.087	379.002	56.600	0.000
-3.900	0.010	-12.292	33.835	48.663	0.000	2.088	379.008	56.600	0.000
-3.800	0.010	-12.300	33.835	48.663	0.000	2.076	379.000	56.600	0.000
-3.700	0.010	-12.387	33.834	48.663	0.000	2.071	379.002	56.600	0.000
-3.600	0.010	-12.529	33.836	48.663	0.000	2.070	378.998	56.600	0.000
-3.500	0.010	-12.361	33.837	48.663	0.000	2.061	378.995	56.600	0.000
-3.400	0.010	-12.237	33.837	48.661	0.000	2.064	378.996	56.600	0.000
-3.300	0.010	-12.159	33.837	48.661	0.000	2.066	378.998	56.600	0.000
-3.200	0.010	-12.228	33.837	48.661	0.000	2.061	378.995	56.600	0.000
-3.100	0.010	-12.533	33.836	48.661	0.000	2.056	378.995	56.600	0.000
-3.000	0.010	-12.132	33.837	48.660	0.000	2.066	378.999	56.600	0.000
-2.900	0.010	-12.288	33.839	48.660	0.000	2.068	379.009	56.600	0.000
-2.800	0.010	-12.463	33.840	48.659	0.000	2.062	379.002	56.600	0.000
-2.700	0.010	-12.300	33.840	48.659	0.000	2.062	378.996	56.600	0.000
-2.600	0.010	-12.267	33.841	48.659	0.000	2.059	378.994	56.600	0.000
-2.500	0.010	-12.196	33.842	48.659	0.000	2.067	379.014	56.600	0.000
-2.400	0.010	-12.356	33.841	48.659	0.000	2.071	379.017	56.600	0.000
-2.300	0.010	-12.442	33.841	48.659	0.000	2.073	378.998	56.600	0.000
-2.200	0.010	-12.414	33.841	48.658	0.000	2.062	378.993	56.600	0.000
-2.100	0.010	-12.436	33.843	48.658	0.000	2.047	378.988	56.600	0.000
-2.000	0.010	-12.288	33.844	48.658	0.000	2.049	378.989	56.600	0.000
-1.900	0.010	-12.284	33.844	48.657	0.000	2.048	378.994	56.600	0.000
-1.800	0.010	-12.391	33.844	48.657	0.000	2.052	378.999	56.600	0.000
-1.700	0.010	-12.335	33.843	48.658	0.000	2.057	378.998	56.600	0.000
-1.600	0.010	-12.283	33.843	48.658	0.000	2.139	378.991	56.600	0.000
-1.500	0.010	-12.319	33.844	48.657	0.000	2.314	378.992	56.600	0.000
-1.400	0.010	-12.279	33.844	48.656	0.000	2.135	379.003	56.600	0.000
-1.300	0.010	-12.285	33.844	48.655	0.000	2.082	379.003	56.600	0.000
-1.200	0.010	-12.467	33.844	48.655	0.000	2.027	378.999	56.600	0.000
-1.100	0.010	-12.423	33.844	48.655	0.000	2.032	378.987	56.600	0.000
-1.000	0.010	-12.264	33.843	48.654	0.000	2.035	378.988	56.600	0.000
-0.900	0.010	-12.301	33.843	48.653	0.000	2.040	378.994	56.600	0.000
-0.800	0.010	-12.336	33.844	48.654	0.000	2.032	378.980	56.600	0.000
-0.700	0.010	-12.318	33.845	48.655	0.000	2.045	378.992	56.600	0.000
-0.600	0.010	-12.191	33.845	48.655	0.000	2.046	378.993	56.600	0.000
-0.500	0.010	-12.084	33.845	48.655	0.000	2.065	378.998	56.600	0.000
-0.400	0.010	-12.102	33.845	48.655	0.000	2.074	378.996	56.600	0.000
-0.300	0.010	-12.208	33.845	48.654	0.000	2.090	378.998	56.600	0.000
-0.200	0.010	-12.318	33.845	48.654	0.000	2.104	378.996	56.600	0.000
-0.100	0.010	-12.440	33.845	48.654	0.000	2.095	378.995	56.600	0.000
-0.000	0.010	-12.552	33.847	48.653	0.000	2.079	378.984	56.600	0.000
0.100	0.010	-12.434	33.849	48.652	0.471	2.069	378.994	56.600	0.000
0.200	0.010	-12.300	33.850	48.652	1.000	2.042	378.990	56.600	0.000
0.300	0.010	-12.266	33.850	48.652	1.000	2.037	378.996	56.600	0.000
0.400	0.010	-12.280	33.850	48.653	1.000	2.041	378.991	56.600	0.000
0.500	0.009	-12.405	33.850	48.653	1.000	2.057	378.997	56.600	0.000
0.600	0.009	-12.343	33.849	48.652	1.000	2.073	378.991	56.600	0.000
0.700	0.009	-12.329	33.849	48.651	1.000	2.055	378.991	56.600	0.000
0.800	0.010	-12.379	33.849	48.650	1.000	2.053	379.001	56.600	0.000
0.900	0.009	-12.151	33.849	48.651	1.000	2.047	378.992	56.600	0.000
1.000	0.009	-12.028	33.849	48.650	1.000	2.042	378.981	56.600	0.000
1.100	0.010	-12.181	33.849	48.650	1.000	2.034	378.979	56.600	0.000
1.200	0.010	-12.271	33.850	48.649	1.000	2.021	378.967	56.600	0.000
1.300	0.010	-12.224	33.850	48.650	1.000	2.045	378.979	56.600	0.000
1.400	0.010	-12.264	33.851	48.652	1.000	2.112	378.989	56.600	0.000
1.500	0.010	-12.280	33.851	48.652	1.000	2.097	378.993	56.600	0.000
1.600	0.009	-12.316	33.851	48.653	1.000	2.044	378.998	56.600	0.000
1.700	0.010	-12.336	33.852	48.653	1.000	2.025	378.995	56.600	0.000
1.800	0.010	-12.290	33.852	48.653	1.000	2.033	378.996	56.600	0.000
1.900	0.010	-12.259	33.852	48.653	1.000	2.049	378.999	56.600	0.000
2.000	0.010	-12.285	33.852	48.653	1.000	2.044	378.997	56.600	0.000
2.100	0.010	-12.401	33.852	48.652	1.000	2.030	378.986	56.600	0.000
2.200	0.010	-12.465	33.854	48.652	1.000	2.025	378.982	56.600	0.000
2.300	0.010	-12.378	33.855	48.653	1.000	2.015	378.987	56.600	0.000
2.400	0.010	-12.388	33.855	48.653	1.000	2.021	378.986	56.600	0.000
2.500	0.010	-12.310	33.855	48.652	1.000	2.045	378.996	56.600	0.000
2.600	0.010	-12.342	33.855	48.652	1.000	2.037	378.998	56.600	0.000
2.700	0.010	-12.315	33.855	48.653	1.000	2.039	378.992	56.600	0.000
2.800	0.010	-12.381	33.855	48.653	1.000	2.033	378.991	56.600	0.000
2.900	0.010	-12.387	33.856	48.652	1.000	2.019	378.988	56.600	0.000
3.000	0.010	-12.300	33.857	48.652	1.000	2.026	378.989	56.600	0.000
3.100	0.010	-12.286	33.857	48.653	1.000	2.010	378.991	56.600	0.000
3.200	0.010	-12.249	33.857	48.652	1.000	1.977	378.977	56.600	0.000
3.300	0.010	-12.257	33.857	48.652	1.000	1.977	378.982	56.600	0.000
3.400	0.010	-12.314	33.857	48.653	1.000	1.950	378.988	56.600	0.000
3.500	0.010	-12.394	33.858	48.653	1.000	1.991	378.989	56.600	0.000
3.600	0.010	-12.409	33.858	48.654	1.000	2.003	378.992	56.600	0.000
3.700	0.010	-12.314	33.858	48.655	1.000	1.993	378.994	56.600	0.000
3.800	0.010	-12.364	33.858	48.654	1.000	1.989	378.989	56.600	0.000
3.900	0.010	-12.380	33.857	48.654	1.000	1.986	378.995	56.600	0.000
4.000	0.010	-12.434	33.858	48.655	1.000	1.984	378.995	56.600	0.000
4.100	0.010	-12.451	33.859	48.655	1.000	1.979	378.994	56.600	0.000
4.200	0.042	-12.173	33.858	48.655	1.000	2.006	378.980	56.600	0.000
4.300	0.151	22.583	33.858	48.654	1.000	2.123	378.955	56.600	0.000
4.400	0.279	189.732	33.860	48.654	1.000	2.172	378.963	56.600	0.000
4.500	0.377	437.922	33.860	48.654	1.000	2.333	378.955	56.600	0.000
4.600	0.474	612.359	33.859	48.655	1.000	2.547	378.945	56.600	0.000
4.700	0.572	744.383	33.859	48.655	1.000	2.660	378.929	56.600	0.000
4.800	0.689	762.420	33.859	48.655	1.000	2.720	378.925	56.600	0.000
4.900	0.829	751.772	33.859	48.654	1.000	2.935	378.916	56.600	1.933
5.000	0.953	779.480	33.860	48.654	1.000	3.256	378.888	56.600	2.494
5.100	1.078	844.926	33.861	48.656	1.000	3.657	378.854	56.600	2.986
5.200	1.236	914.138	33.861	48.656	1.000	3.943	378.805	56.600	4.983
5.300	1.420	979.545	33.861	48.656	1.000	4.556	378.751	56.600	6.480
5.400	1.617	1099.534	33.861	48.655	1.000	5.360	378.699	56.600	6.982
5.500	1.828	1247.239	33.862	48.656	1.000	6.158	378.651	56.600	8.480
5.600	2.060	1368.989	33.862	48.656	1.000	7.158	378.568	56.600	12.459
5.700	2.331	1518.988	33.862	48.656	1.000	8.837	378.416	56.600	13.482
5.800	2.649	1756.659	33.863	48.658	1.000	10.674	378.263	56.600	13.006
5.900	2.960	1980.889	33.864	48.659	1.000	12.056	378.149	56.600	13.000
6.000	3.274	2072.141	33.864	48.659	1.000	13.059	378.061	56.600	13.000
6.100	3.581	2074.503	33.864	48.659	1.000	13.785	377.994	56.600	13.494
6.200	3.879	2040.059	33.864	48.659	1.000	14.337	377.943	56.600	13.500
6.300	4.169	1994.383	33.865	48.659	1.000	14.787	377.902	56.600	13.981
6.400	4.463	1948.459	33.866	48.659	1.000	15.289	377.853	56.600	14.481
6.500	4.744	1915.080	33.865	48.659	1.000	15.847	377.809	56.600	14.500
6.600	5.007	1881.886	33.865	48.659	1.000	16.367	377.758	56.600	14.500
6.700	5.277	1839.262	33.864	48.659	1.000	16.900	377.707	56.600	14.003
6.800	5.539	1814.987	33.864	48.659	1.000	17.351	377.657	56.600	14.000
6.900	5.811	1787.340	33.864	48.659	1.000	17.726	377.627	56.600	14.000
7.000	6.056	1754.264	33.864	48.660	1.000	18.065	377.594	56.600	14.000
7.100	6.319	1728.180	33.865	48.659	1.000	18.511	377.547	56.600	14.984
7.200	6.587	1709.883	33.865	48.659	1.000	19.273	377.457	56.600	15.986
7.300	6.845	1743.243	33.865	48.660	1.000	20.704	377.330	56.600	16.991
7.400	7.141	1813.388	33.866	48.661	1.000	22.575	377.171	56.501	18.970
7.500	7.452	1901.569	33.867	48.662	1.000	24.824	376.983	56.500	19.000
7.600	7.774	2038.550	33.866	48.662	1.000	26.870	376.829	56.500	19.000
7.700	8.102	2129.650	33.867	48.661	1.000	28.397	376.713	56.500	19.000
7.800	8.430	2166.836	33.867	48.661	1.000	29.472	376.615	56.500	19.000
7.900	8.743	2168.739	33.867	48.662	1.000	30.094	376.565	56.500	19.000
8.000	9.045	2125.325	33.868	48.663	1.000	30.645	376.496	56.500	19.000
8.100	9.373	2093.098	33.868	48.664	1.000	31.267	376.429	56.500	19.000
8.200	9.669	2072.025	33.870	48.664	1.000	31.751	376.362	56.500	19.000
8.300	9.964	2050.472	33.869	48.664	1.000	32.019	376.322	56.500	16.553
8.400	10.244	2013.793	33.869	48.664	1.000	31.331	376.352	56.500	16.012
8.500	10.508	1897.380	33.869	48.664	1.000	30.100	376.456	56.500	16.494
8.600	10.773	1772.617	33.869	48.664	1.000	29.243	376.530	56.500	16.997
8.700	11.021	1684.029	33.870	48.663	1.000	29.200	376.525	56.500	17.494
8.800	11.262	1652.488	33.871	48.663	1.000	30.210	376.428	56.500	17.996
8.900	11.504	1665.122	33.871	48.664	1.000	31.345	376.343	56.500	18.000
9.000	11.747	1703.326	33.871	48.664	1.000	32.132	376.274	56.500	18.496
9.100	12.016	1726.403	33.870	48.665	1.000	33.059	376.178	56.500	18.500
9.200	12.287	1739.178	33.871	48.664	1.000	34.083	376.083	56.500	18.500
9.300	12.547	1740.650	33.870	48.664	1.000	34.678	376.030	56.500	18.500
9.400	12.805	1741.514	33.870	48.664	1.000	35.022	375.975	56.500	19.460
9.500	13.074	1743.033	33.871	48.665	1.000	36.031	375.882	56.500	19.997
9.600	13.340	1744.519	33.871	48.665	1.000	37.259	375.790	56.500	20.000
9.700	13.604	1768.570	33.871	48.665	1.000	38.271	375.699	56.500	20.488
9.800	13.860	1809.705	33.871	48.665	1.000	39.400	375.592	56.500	21.493
9.900	14.154	1823.585	33.870	48.665	1.000	40.882	375.465	56.500	21.500
10.000	14.438	1840.153	33.871	48.665	1.000	42.165	375.353	56.500	21.500
10.100	14.704	1879.464	33.871	48.666	1.000	43.441	375.241	56.500	21.977
10.200	14.984	1890.461	33.872	48.666	1.000	45.224	375.103	56.500	22.495
10.300	15.275	1893.490	33.873	48.665	1.000	46.335	375.043	56.500	22.500
10.400	15.557	1915.372	33.872	48.664	1.000	46.778	374.983	56.500	22.977
10.500	15.847	1907.796	33.873	48.665	1.000	47.043	374.917	56.500	23.000
10.600	16.139	1900.100	33.872	48.665	1.000	47.252	374.856	56.500	23.000
10.700	16.395	1905.741	33.873	48.665	1.000	47.381	374.835	56.500	22.506
10.800	16.679	1867.965	33.873	48.665	1.000	47.048	374.845	56.500	21.019
10.900	16.922	1832.979	33.873	48.666	1.000	45.490	374.943	56.500	21.000
11.000	17.159	1760.564	33.873	48.666	1.000	44.245	375.031	56.500	21.000
11.100	17.411	1650.415	33.873	48.667	1.000	44.147	375.032	56.500	21.000
11.200	17.646	1631.318	33.874	48.666	1.000	44.324	375.011	56.500	21.000
11.300	17.864	1608.204	33.873	48.666	1.000	44.719	374.965	56.500	21.497
11.400	18.103	1612.857	33.873	48.667	1.000	45.202	374.910	56.500	21.500
11.500	18.349	1621.516	33.873	48.667	1.000	45.537	374.884	56.500	21.500
11.600	18.587	1590.743	33.873	48.667	1.000	45.860	374.835	56.500	21.500
11.700	18.816	1597.731	33.872	48.666	1.000	46.101	374.822	56.500	21.500
11.800	19.054	1575.713	33.873	48.666	1.000	46.392	374.785	56.500	21.500
11.900	19.271	1582.175	33.873	48.666	1.000	46.546	374.761	56.500	21.500
12.000	19.509	1566.102	33.873	48.667	1.000	46.788	374.733	56.500	21.500
12.100	19.735	1539.943	33.873	48.667	1.000	47.119	374.698	56.500	21.500
12.200	19.948	1543.984	33.873	48.668	1.000	47.301	374.654	56.500	21.500
12.300	20.173	1526.342	33.872	48.667	1.000	47.525	374.617	56.500	21.500
12.400	20.392	1540.463	33.872	48.667	1.000	47.708	374.601	56.500	21.500
12.500	20.631	1496.675	33.872	48.667	1.000	47.823	374.588	56.500	21.994
12.600	20.831	1494.407	33.872	48.668	1.000	48.050	374.566	56.500	22.000
12.700	21.054	1477.844	33.872	48.669	1.000	48.289	374.524	56.500	22.000
12.800	21.268	1489.683	33.871	48.667	1.000	48.352	374.514	56.500	22.000
12.900	21.492	1456.806	33.873	48.667	1.000	48.585	374.480	56.401	22.000
13.000	21.695	1452.021	33.872	48.668	1.000	48.792	374.457	56.400	22.000
13.100	21.892	1441.632	33.871	48.668	1.000	48.786	374.444	56.400	22.000
13.200	22.096	1451.558	33.871	48.667	1.000	48.917	374.416	56.400	22.000
13.300	22.320	1414.479	33.871	48.665	1.000	48.946	374.407	56.400	22.000
13.400	22.529	1407.664	33.870	48.666	1.000	48.953	374.404	56.400	22.000
13.500	22.724	1401.485	33.871	48.665	1.000	48.996	374.391	56.400	22.000
13.600	22.917	1407.306	33.871	48.665	1.000	49.135	374.353	56.400	22.000
13.700	23.109	1366.409	33.871	48.666	1.000	49.121	374.332	56.400	22.000
13.800	23.303	1362.158	33.869	48.665	1.000	49.259	374.322	56.400	22.000
13.900	23.501	1360.939	33.865	48.665	1.000	49.393	374.306	56.400	22.000
14.000	23.698	1363.339	33.864	48.666	1.000	49.952	374.226	56.400	24.478
14.100	23.938	1349.761	33.864	48.666	1.000	59.032	373.439	56.400	34.411
14.200	24.263	1547.080	33.864	48.666	1.000	81.940	371.587	56.400	34.995
14.300	24.664	2211.066	33.864	48.665	1.000	93.334	370.731	56.400	36.485
14.400	25.051	2584.024	33.865	48.666	1.000	97.201	370.376	56.400	36.500
14.500	25.436	2593.396	33.862	48.666	1.000	98.148	370.285	56.400	36.005
14.600	25.787	2593.592	33.859	48.667	1.000	95.582	370.408	56.400	35.012
14.700	26.129	2526.853	33.858	48.668	1.000	91.464	370.662	56.400	34.506
14.800	26.467	2341.223	33.858	48.668	1.000	87.453	370.969	56.400	34.006
14.900	26.766	2212.015	33.858	48.668	1.000	84.082	371.210	56.400	34.000
15.000	27.056	2122.972	33.858	48.667	1.000	83.473	371.252	56.400	34.000
15.100	27.345	2042.639	33.857	48.667	1.000	83.705	371.202	56.400	33.502
15.200	27.641	2034.256	33.857	48.669	1.000	83.155	371.210	56.400	33.002
15.300	27.928	2029.305	33.855	48.672	1.000	80.232	371.413	56.400	29.516
15.400	28.170	1918.549	33.852	48.673	1.000	75.344	371.765	56.400	29.500
15.500	28.416	1770.185	33.851	48.674	1.000	73.709	371.917	56.400	30.494
15.600	28.662	1712.647	33.852	48.675	1.000	75.085	371.798	56.400	31.990
15.700	28.915	1713.351	33.851	48.673	1.000	78.958	371.469	56.400	33.986
15.800	29.197	1782.932	33.852	48.674	1.000	83.786	371.066	56.400	34.496
15.900	29.490	1909.702	33.851	48.675	1.000	87.551	370.754	56.400	34.996
16.000	29.783	1973.352	33.846	48.679	1.000	89.789	370.550	56.301	35.991
16.100	30.072	1994.101	33.842	48.683	1.000	92.276	370.332	56.300	36.496
16.200	30.370	2056.112	33.841	48.684	1.000	93.516	370.202	56.300	36.995
16.300	30.661	2052.391	33.841	48.684	1.000	94.038	370.133	56.300	37.495
16.400	30.954	2033.963	33.840	48.685	1.000	96.110	369.945	56.300	37.991
16.500	31.275	2078.580	33.842	48.684	1.000	98.585	369.734	56.300	38.000
16.600	31.586	2093.707	33.840	48.685	1.000	99.013	369.661	56.300	38.000
16.700	31.879	2093.791	33.835	48.689	1.000	98.119	369.694	56.300	36.024
16.800	32.165	2077.198	33.829	48.698	1.000	95.980	369.823	56.300	36.000
16.900	32.424	1995.014	33.827	48.701	1.000	95.268	369.874	56.300	36.000
17.000	32.704	1962.783	33.825	48.702	1.000	95.520	369.843	56.300	36.000
17.100	32.992	1949.960	33.826	48.703	1.000	95.838	369.801	56.300	36.000
17.200	33.253	1917.761	33.827	48.703	1.000	96.316	369.723	56.300	36.000
17.300	33.531	1925.616	33.826	48.702	1.000	96.937	369.654	56.300	36.000
17.400	33.817	1916.144	33.825	48.703	1.000	97.491	369.583	56.300	36.000
17.500	34.044	1918.359	33.826	48.702	1.000	98.186	369.516	56.300	36.000
17.600	34.355	1925.950	33.825	48.703	1.000	99.159	369.421	56.300	37.490
17.700	34.620	1903.626	33.826	48.703	1.000	101.073	369.240	56.300	37.997
17.800	34.895	1951.754	33.825	48.704	1.000	103.056	369.062	56.300	38.496
17.900	35.188	1956.271	33.817	48.715	1.000	104.884	368.880	56.300	39.492
18.000	35.482	1980.287	33.812	48.729	1.000	106.993	368.686	56.300	39.500
18.100	35.772	2016.595	33.809	48.732	1.000	107.805	368.596	56.300	39.500
18.200	36.065	2004.194	33.809	48.734	1.000	107.557	368.574	56.300	39.500
18.300	36.321	2007.366	33.808	48.735	1.000	107.432	368.559	56.211	38.614
18.400	36.597	1973.526	33.808	48.736	1.000	107.059	368.570	56.200	38.500
18.500	36.888	1959.113	33.808	48.736	1.000	107.084	368.560	56.200	38.500
18.600	37.135	1931.796	33.805	48.743	1.000	107.122	368.528	56.200	38.500
18.700	37.419	1917.882	33.793	48.763	1.000	106.982	368.512	56.200	38.500
18.800	37.671	1914.816	33.793	48.773	1.000	107.054	368.481	56.200	38.500
18.900	37.935	1878.010	33.791	48.776	1.000	107.303	368.434	56.200	38.500
19.000	38.211	1890.882	33.790	48.777	1.000	107.463	368.394	56.200	38.500
19.100	38.472	1858.620	33.790	48.777	1.000	107.361	368.386	56.200	38.500
19.200	38.746	1855.332	33.789	48.777	1.000	107.626	368.336	56.200	38.500
19.300	38.988	1833.350	33.786	48.785	1.000	107.801	368.295	56.200	38.500
19.400	39.236	1837.068	33.774	48.808	1.000	107.836	368.269	56.200	38.500
19.500	39.498	1822.807	33.769	48.822	1.000	108.056	368.237	56.200	38.500
19.600	39.738	1805.617	33.766	48.826	1.000	108.388	368.184	56.200	38.500
19.700	40.005	1810.483	33.765	48.828	1.000	108.926	368.135	56.200	39.491
19.800	40.260	1785.808	33.767	48.827	1.000	109.856	368.031	56.200	39.996
19.900	40.501	1816.045	33.765	48.829	1.000	111.551	367.867	56.200	40.496
20.000	40.763	1803.013	33.766	48.831	1.000	114.214	367.620	56.200	42.483
20.100	41.032	1843.561	33.757	48.854	1.000	117.609	367.341	56.200	43.948
20.200	41.283	1868.649	33.748	48.877	1.000	120.870	367.049	56.101	44.990
20.300	41.572	1939.389	33.746	48.886	1.000	123.405	366.820	56.100	45.495
20.400	41.833	1952.311	33.746	48.888	1.000	124.663	366.696	56.100	45.500
20.500	42.105	1978.236	33.745	48.889	1.000	125.364	366.612	56.100	45.992
20.600	42.399	1953.714	33.745	48.891	1.000	125.882	366.539	56.100	46.000
20.700	42.641	1964.683	33.744	48.892	1.000	126.200	366.490	56.100	46.000
20.800	42.931	1937.165	33.733	48.915	1.000	126.263	366.453	56.100	46.000
20.900	43.174	1939.935	33.726	48.944	1.000	126.522	366.410	56.100	46.493
21.000	43.468	1910.793	33.722	48.955	1.000	127.321	366.320	56.100	46.500
21.100	43.710	1924.713	33.722	48.958	1.000	127.799	366.253	56.100	46.998
21.200	43.974	1899.319	33.722	48.959	1.000	128.536	366.178	56.100	47.000
21.300	44.247	1911.243	33.722	48.960	1.000	129.081	366.072	56.100	47.497
21.400	44.507	1903.724	33.721	48.962	1.000	130.524	365.950	56.100	48.991
21.500	44.778	1921.231	33.718	48.973	1.000	133.029	365.739	56.100	49.497
21.600	45.038	1935.349	33.707	49.008	1.000	135.043	365.536	56.100	51.487
21.700	45.316	1971.864	33.703	49.027	1.000	138.080	365.243	56.100	51.996
21.800	45.606	1984.598	33.701	49.035	1.000	140.655	365.032	56.100	52.496
21.900	45.902	2034.170	33.701	49.036	1.000	142.135	364.875	56.001	52.996
22.000	46.147	2020.974	33.699	49.037	1.000	143.798	364.706	56.000	53.496
22.100	46.440	2048.012	33.702	49.037	1.000	144.702	364.587	56.000	53.500
22.200	46.727	2035.502	33.698	49.047	1.000	145.400	364.484	56.000	53.987
22.300	47.022	2039.852	33.689	49.083	1.000	146.843	364.330	56.000	54.495
22.400	47.284	2040.627	33.684	49.105	1.000	147.854	364.229	56.000	54.980
22.500	47.558	2042.912	33.682	49.114	1.000	148.552	364.148	56.000	55.000
22.600	47.848	2039.799	33.682	49.117	1.000	149.700	364.034	56.000	55.494
22.700	48.103	2027.943	33.681	49.117	1.000	150.520	363.927	56.000	55.500
22.800	48.387	2033.791	33.681	49.119	1.000	150.712	363.871	56.000	55.500
22.900	48.673	2013.030	33.682	49.122	1.000	151.036	363.802	56.000	55.993
23.000	48.932	2008.362	33.675	49.150	1.000	152.391	363.657	56.000	57.495
23.100	49.215	2004.572	33.670	49.181	1.000	155.491	363.379	56.000	58.994
23.200	49.503	2033.797	33.669	49.193	1.000	158.154	363.130	56.000	59.000
23.300	49.794	2069.341	33.669	49.197	1.000	159.119	363.006	56.000	59.000
23.400	50.067	2067.412	33.668	49.198	1.000	159.426	362.950	55.904	59.000
23.500	50.343	2063.698	33.668	49.199	1.000	159.242	362.942	55.900	59.000
23.600	50.633	2037.676	33.668	49.202	1.000	159.357	362.907	55.900	59.000
23.700	50.884	2036.358	33.665	49.229	1.000	159.265	362.863	55.900	59.000
23.800	51.168	2015.633	33.660	49.259	1.000	159.066	362.835	55.900	59.000
23.900	51.433	2008.935	33.658	49.273	1.000	159.219	362.784	55.900	59.000
24.000	51.712	2002.924	33.657	49.278	1.000	159.555	362.732	55.900	59.000
24.100	51.973	1981.111	33.658	49.280	1.000	158.990	362.749	55.900	59.000
24.200	52.246	1974.331	33.657	49.281	1.000	158.706	362.728	55.900	59.000
24.300	52.492	1957.960	33.658	49.280	1.000	158.981	362.687	55.900	59.000
24.400	52.745	1948.058	33.658	49.291	1.000	159.965	362.568	55.900	59.000
24.500	53.013	1945.449	33.656	49.326	1.000	159.475	362.574	55.900	59.000
24.600	53.268	1929.162	33.655	49.348	1.000	159.642	362.526	55.900	59.000
24.700	53.512	1920.593	33.653	49.356	1.000	159.588	362.515	55.900	59.000
24.800	53.773	1916.209	33.653	49.359	1.000	157.581	362.615	55.801	54.063
24.900	54.020	1895.179	33.654	49.360	1.000	147.694	363.294	55.800	46.597
25.000	54.220	1803.338	33.654	49.359	1.000	134.500	364.327	55.800	42.512
25.100	54.382	1616.135	33.654	49.367	1.000	125.589	365.081	55.800	40.010
25.200	54.560	1472.321	33.657	49.399	1.000	118.768	365.605	55.800	37.513
25.300	54.713	1370.307	33.657	49.420	1.000	111.695	366.172	55.800	33.541
25.400	54.858	1279.507	33.657	49.428	1.000	102.087	366.922	55.800	30.133
25.500	54.979	1166.816	33.658	49.429	1.000	90.437	367.847	55.800	27.535
25.600	55.078	1011.537	33.658	49.431	1.000	81.139	368.630	55.800	25.015
25.700	55.133	878.456	33.658	49.431	1.000	72.891	369.345	55.800	24.503
25.800	55.195	754.595	33.658	49.433	1.000	67.260	369.836	55.800	22.012
25.900	55.247	683.819	33.662	49.454	1.000	59.105	370.444	55.800	19.024
26.000	55.273	580.976	33.668	49.479	1.000	47.461	371.407	55.800	16.515
26.100	55.285	427.114	33.670	49.490	1.000	39.837	372.108	55.800	16.005
26.200	55.279	304.722	33.670	49.496	1.000	35.955	372.461	55.800	15.505
26.300	55.272	238.102	33.670	49.496	1.000	32.219	372.796	55.800	13.525
26.400	55.257	187.084	33.670	49.496	1.000	26.988	373.288	55.800	13.021
26.500	55.225	126.615	33.671	49.498	1.000	24.560	373.559	55.800	13.000
26.600	55.206	68.650	33.681	49.513	1.000	24.697	373.593	55.800	13.981
26.700	55.205	52.053	33.690	49.536	1.000	27.800	373.375	55.800	15.981
26.800	55.167	91.808	33.695	49.546	1.000	33.217	372.968	55.800	16.493
26.900	55.196	160.235	33.696	49.551	1.000	37.296	372.680	55.800	16.500
27.000	55.204	222.814	33.696	49.552	1.000	38.260	372.617	55.800	16.500
27.100	55.204	257.562	33.696	49.551	1.000	39.122	372.576	55.800	16.500
27.200	55.204	278.032	33.696	49.552	1.000	39.192	372.550	55.800	16.980
27.300	55.205	277.333	33.702	49.557	1.000	38.666	372.597	55.800	17.000
27.400	55.225	248.403	33.718	49.572	1.000	38.979	372.597	55.800	17.000
27.500	55.233	265.960	33.727	49.582	1.000	39.497	372.590	55.800	17.000
27.600	55.250	275.873	33.730	49.587	1.000	38.591	372.675	55.800	16.008
27.700	55.254	259.367	33.731	49.588	1.000	36.355	372.844	55.800	15.506
27.800	55.255	245.892	33.732	49.588	1.000	34.300	373.029	55.800	15.500
27.900	55.255	211.456	33.733	49.589	1.000	33.600	373.120	55.800	15.500
28.000	55.227	182.765	33.738	49.590	1.000	33.594	373.147	55.704	15.500
28.100	55.207	194.234	33.761	49.596	1.000	33.832	373.131	55.700	15.500
28.200	55.204	198.642	33.775	49.603	1.000	33.974	373.118	55.700	15.500
28.300	55.203	188.196	33.779	49.605	1.000	34.075	373.113	55.700	15.500
28.400	55.204	201.800	33.782	49.605	1.000	34.346	373.102	55.700	15.500
28.500	55.205	208.627	33.783	49.605	1.000	34.557	373.103	55.700	15.500
28.600	55.205	197.347	33.783	49.605	1.000	34.531	373.138	55.700	15.500
28.700	55.204	208.106	33.784	49.606	1.000	34.339	373.162	55.700	15.500
28.800	55.204	208.991	33.812	49.604	1.000	34.329	373.167	55.700	15.500
28.900	55.204	191.772	33.838	49.601	1.000	34.143	373.183	55.700	15.500
29.000	55.205	198.086	33.848	49.599	1.000	34.381	373.166	55.700	15.998
29.100	55.205	209.662	33.850	49.598	1.000	35.273	373.113	55.700	16.000
29.200	55.204	206.128	33.852	49.597	1.000	35.971	373.062	55.700	16.000
29.300	55.204	226.758	33.851	49.597	1.000	35.968	373.051	55.700	16.000
29.400	55.204	235.478	33.853	49.596	1.000	35.993	373.042	55.700	16.000
29.500	55.203	221.885	33.889	49.580	1.000	36.090	373.039	55.700	16.000
29.600	55.204	228.080	33.923	49.563	1.000	35.873	373.072	55.700	16.000
29.700	55.204	235.208	33.933	49.556	1.000	36.083	373.061	55.700	16.497
29.800	55.206	223.534	33.935	49.554	1.000	36.462	373.034	55.700	16.500
29.900	55.205	235.196	33.936	49.554	1.000	36.514	373.041	55.700	16.007
30.000	55.204	239.111	33.937	49.553	1.000	36.283	373.066	55.700	16.000
30.100	55.204	223.662	33.942	49.551	1.000	36.384	373.061	55.700	16.000
30.200	55.205	233.511	33.971	49.531	1.000	36.089	373.087	55.700	16.000
30.300	55.211	232.882	34.014	49.497	1.000	35.867	373.125	55.700	16.000
30.400	55.226	218.147	34.029	49.483	1.000	35.601	373.130	55.700	16.000
30.500	55.219	230.107	34.033	49.479	1.000	35.774	373.110	55.700	16.000
30.600	55.215	230.177	34.034	49.477	1.000	35.917	373.113	55.700	16.000
30.700	55.241	217.767	34.035	49.477	1.000	35.908	373.140	55.700	16.000
30.800	55.246	232.884	34.044	49.471	1.000	36.326	373.114	55.700	16.000
30.900	55.246	231.953	34.085	49.438	1.000	36.356	373.100	55.700	16.000
31.000	55.255	220.543	34.126	49.399	1.000	35.980	373.127	55.700	16.000
31.100	55.254	233.651	34.141	49.380	1.000	35.857	373.156	55.700	16.000
31.200	55.254	232.015	34.145	49.374	1.000	36.145	373.107	55.700	16.000
31.300	55.255	225.299	34.147	49.372	1.000	36.181	373.100	55.700	16.000
31.400	55.255	237.769	34.147	49.371	1.000	36.426	373.083	55.700	16.494
31.500	55.254	230.605	34.150	49.369	1.000	36.128	373.119	55.700	16.003
31.600	55.254	223.774	34.182	49.339	1.000	36.310	373.107	55.700	16.000
31.700	55.253	235.962	34.233	49.283	1.000	36.054	373.137	55.700	16.000
31.800	55.253	224.210	34.262	49.246	1.000	34.722	373.241	55.700	15.504
31.900	55.241	196.645	34.272	49.233	1.000	32.976	373.384	55.700	15.023
32.000	55.225	187.927	34.274	49.229	1.000	32.407	373.466	55.700	15.496
32.100	55.212	175.409	34.275	49.227	1.000	32.139	373.478	55.700	15.005
32.200	55.204	168.041	34.276	49.226	1.000	32.116	373.461	55.700	15.000
32.300	55.204	179.976	34.307	49.193	1.000	32.161	373.477	55.700	15.000
32.400	55.205	177.960	34.363	49.127	1.000	32.129	373.480	55.700	15.475
32.500	55.204	169.021	34.399	49.077	1.000	32.357	373.477	55.700	15.500
32.600	55.204	178.551	34.409	49.058	1.000	32.307	373.462	55.700	15.500
32.700	55.194	181.640	34.412	49.053	1.000	32.687	373.439	55.700	15.500
32.800	55.177	182.456	34.413	49.050	1.000	33.505	373.389	55.700	15.500
32.900	55.165	195.955	34.414	49.049	1.000	33.318	373.408	55.700	15.500
33.000	55.156	196.854	34.428	49.035	1.000	33.714	373.374	55.700	15.500
33.100	55.156	193.958	34.483	48.969	1.000	34.160	373.336	55.700	15.500
33.200	55.156	205.028	34.538	48.892	1.000	34.420	373.314	55.700	15.998
33.300	55.157	212.108	34.555	48.858	1.000	35.211	373.239	55.700	16.000
33.400	55.157	213.733	34.561	48.846	1.000	35.358	373.229	55.700	16.000
33.500	55.156	221.840	34.564	48.842	1.000	35.207	373.259	55.700	16.000
33.600	55.156	223.109	34.564	48.841	1.000	35.495	373.220	55.700	16.000
33.700	55.165	221.966	34.576	48.827	1.000	36.246	373.177	55.700	16.496
33.800	55.177	232.991	34.628	48.758	1.000	36.242	373.180	55.700	16.500
33.900	55.183	236.981	34.690	48.670	1.000	36.388	373.148	55.700	16.004
34.000	55.195	230.831	34.712	48.628	1.000	36.244	373.159	55.700	16.000
34.100	55.204	236.413	34.719	48.614	1.000	36.183	373.174	55.700	16.000
34.200	55.203	239.865	34.721	48.609	1.000	36.189	373.150	55.601	16.000
34.300	55.204	229.134	34.722	48.608	1.000	36.316	373.163	55.600	16.000
34.400	55.204	231.965	34.725	48.605	1.000	36.143	373.151	55.600	16.000
34.500	55.204	236.286	34.764	48.553	1.000	36.417	373.156	55.600	16.000
34.600	55.204	225.909	34.833	48.452	1.000	36.252	373.165	55.600	16.000
34.700	55.204	231.013	34.873	48.382	1.000	36.311	373.160	55.600	16.000
34.800	55.204	235.544	34.884	48.357	1.000	36.362	373.148	55.600	16.000
34.900	55.204	225.293	34.887	48.348	1.000	36.304	373.145	55.600	16.000
35.000	55.205	235.834	34.888	48.345	1.000	36.181	373.172	55.600	16.000
35.100	55.205	239.062	34.890	48.342	1.000	36.252	373.165	55.600	16.000
35.200	55.204	224.286	34.923	48.297	1.000	36.025	373.157	55.600	16.000
35.300	55.204	233.906	34.995	48.192	1.000	36.322	373.138	55.600	16.000
35.400	55.204	237.721	35.042	48.107	1.000	36.131	373.159	55.600	16.000
35.500	55.204	222.284	35.055	48.074	1.000	36.082	373.172	55.600	16.497
35.600	55.204	234.145	35.059	48.063	1.000	36.404	373.137	55.600	16.500
35.700	55.204	236.980	35.061	48.059	1.000	36.093	373.150	55.600	16.500
35.800	55.204	221.935	35.062	48.057	1.000	36.064	373.151	55.600	16.500
35.900	55.204	237.668	35.077	48.039	1.000	36.337	373.152	55.600	16.500
36.000	55.215	242.750	35.137	47.951	1.000	36.294	373.153	55.600	16.500
36.100	55.221	225.682	35.206	47.833	1.000	36.096	373.174	55.600	16.500
36.200	55.216	234.498	35.229	47.780	1.000	36.441	373.131	55.600	16.500
36.300	55.240	237.845	35.238	47.761	1.000	36.131	373.150	55.600	16.500
36.400	55.254	225.421	35.240	47.755	1.000	36.115	373.150	55.600	16.500
36.500	55.254	233.690	35.240	47.753	1.000	36.502	373.152	55.600	16.500
36.600	55.255	236.091	35.251	47.737	1.000	36.160	373.161	55.600	16.006
36.700	55.255	225.324	35.305	47.651	1.000	35.891	373.169	55.600	16.000
36.800	55.245	228.043	35.380	47.521	1.000	35.100	373.248	55.600	15.506
36.900	55.226	211.916	35.408	47.459	1.000	33.251	373.396	55.600	15.500
37.000	55.215	179.959	35.417	47.437	1.000	32.262	373.486	55.600	15.002
37.100	55.204	175.323	35.419	47.430	1.000	32.106	373.496	55.600	15.000
37.200	55.204	178.653	35.420	47.427	1.000	32.101	373.493	55.600	15.498
37.300	55.204	170.612	35.423	47.423	1.000	32.281	373.479	55.600	15.500
37.400	55.204	178.344	35.459	47.368	1.000	32.269	373.474	55.600	15.500
37.500	55.204	184.606	35.535	47.239	1.000	32.426	373.479	55.600	15.500
37.600	55.204	176.669	35.580	47.143	1.000	32.526	373.468	55.600	15.500
37.700	55.196	178.134	35.593	47.107	1.000	32.609	373.451	55.600	15.500
37.800	55.173	182.452	35.597	47.096	1.000	32.423	373.458	55.600	15.500
37.900	55.157	177.073	35.599	47.092	1.000	32.621	373.446	55.600	15.500
38.000	55.157	180.378	35.600	47.089	1.000	32.581	373.454	55.600	15.500
38.100	55.158	187.187	35.629	47.041	1.000	32.684	373.455	55.600	15.500
38.200	55.158	179.210	35.703	46.910	1.000	32.695	373.450	55.600	15.500
38.300	55.157	180.075	35.757	46.800	1.000	32.450	373.472	55.600	15.500
38.400	55.157	187.570	35.771	46.761	1.000	32.939	373.451	55.600	15.500
38.500	55.157	180.040	35.776	46.748	1.000	33.015	373.441	55.600	15.500
38.600	55.145	185.385	35.779	46.742	1.000	33.295	373.417	55.600	15.500
38.700	55.124	195.452	35.780	46.740	1.000	33.292	373.395	55.600	15.500
38.800	55.122	190.160	35.791	46.721	1.000	32.964	373.415	55.600	15.500
38.900	55.106	188.958	35.849	46.624	1.000	32.815	373.420	55.600	15.500
39.000	55.106	193.741	35.923	46.482	1.000	32.956	373.421	55.600	15.500
39.100	55.106	183.616	35.947	46.420	1.000	32.742	373.470	55.600	15.500
39.200	55.106	188.171	35.955	46.397	1.000	32.753	373.440	55.600	15.500
39.300	55.106	191.365	35.957	46.389	1.000	33.021	373.437	55.600	15.500
39.400	55.106	178.354	35.958	46.387	1.000	32.569	373.458	55.600	15.500
39.500	55.106	187.223	35.966	46.373	1.000	32.471	373.475	55.600	15.500
39.600	55.106	189.118	36.015	46.287	1.000	33.128	373.444	55.600	15.500
39.700	55.106	179.690	36.091	46.137	1.000	33.300	373.411	55.600	15.500
39.800	55.099	197.096	36.119	46.064	1.000	33.658	373.379	55.600	15.500
39.900	55.076	196.602	36.128	46.039	1.000	33.502	373.389	55.600	15.500
40.000	55.058	188.978	36.131	46.030	1.000	33.211	373.430	55.600	15.500
40.100	55.058	199.862	36.132	46.026	1.000	33.483	373.393	55.600	15.500
40.200	55.058	192.742	36.133	46.023	1.000	33.426	373.390	55.600	15.500
40.300	55.057	190.015	36.161	45.977	1.000	33.353	373.411	55.600	15.500
40.400	55.058	205.372	36.235	45.838	1.000	33.191	373.415	55.600	15.500
40.500	55.059	187.718	36.283	45.725	1.000	33.143	373.426	55.501	15.500
40.600	55.060	188.137	36.296	45.684	1.000	33.121	373.442	55.500	15.500
40.700	55.059	195.635	36.300	45.670	1.000	33.052	373.435	55.500	15.500
40.800	55.058	180.123	36.302	45.665	1.000	32.829	373.461	55.500	15.500
40.900	55.059	192.231	36.304	45.662	1.000	33.001	373.438	55.500	15.500
41.000	55.052	196.331	36.325	45.623	1.000	33.091	373.422	55.500	15.500
41.100	55.031	182.289	36.395	45.490	1.000	33.029	373.423	55.500	15.500
41.200	55.024	190.530	36.446	45.371	1.000	33.169	373.411	55.500	15.500
41.300	55.009	190.991	36.462	45.327	1.000	33.157	373.418	55.500	15.500
41.400	55.009	180.799	36.466	45.311	1.000	32.967	373.432	55.500	15.500
41.500	55.009	193.277	36.468	45.306	1.000	33.352	373.417	55.500	15.500
41.600	55.009	187.111	36.468	45.304	1.000	32.754	373.469	55.500	15.500
41.700	55.009	184.729	36.478	45.289	1.000	32.870	373.436	55.500	15.500
41.800	55.009	193.559	36.522	45.202	1.000	32.781	373.445	55.500	15.500
41.900	55.008	184.231	36.593	45.051	1.000	33.076	373.419	55.500	15.500
42.000	55.009	187.591	36.618	44.984	1.000	33.288	373.391	55.500	15.500
42.100	55.009	195.771	36.626	44.958	1.000	32.933	373.415	55.500	15.500
42.200	55.009	186.753	36.628	44.950	1.000	33.165	373.405	55.500	15.998
42.300	55.009	201.350	36.629	44.948	1.000	34.552	373.301	55.500	16.000
42.400	55.010	216.083	36.635	44.937	1.000	35.594	373.203	55.500	16.000
42.500	55.009	220.256	36.672	44.866	1.000	35.938	373.197	55.500	16.000
42.600	55.009	235.016	36.745	44.713	1.000	35.807	373.199	55.500	16.000
42.700	55.009	225.732	36.772	44.636	1.000	35.787	373.193	55.500	16.000
42.800	55.009	224.134	36.781	44.610	1.000	35.397	373.203	55.500	16.000
42.900	55.009	229.768	36.784	44.600	1.000	35.204	373.238	55.500	16.000
43.000	55.008	216.737	36.784	44.597	1.000	35.513	373.199	55.500	16.000
43.100	55.009	219.931	36.787	44.594	1.000	35.666	373.191	55.500	16.000
43.200	55.008	221.274	36.805	44.557	1.000	35.539	373.191	55.500	16.000
43.300	55.009	216.443	36.873	44.422	1.000	35.306	373.215	55.500	16.000
43.400	55.010	224.645	36.918	44.311	1.000	35.163	373.222	55.500	16.000
43.500	55.009	221.134	36.931	44.273	1.000	35.466	373.215	55.500	16.000
43.600	55.009	219.339	36.936	44.260	1.000	35.354	373.211	55.500	16.000
43.700	55.009	223.529	36.937	44.255	1.000	35.496	373.201	55.500	16.000
43.800	55.009	218.523	36.938	44.251	1.000	35.592	373.191	55.500	16.000
43.900	55.009	222.594	36.954	44.222	1.000	34.987	373.227	55.500	16.000
44.000	55.009	224.685	37.016	44.101	1.000	35.461	373.201	55.500	16.000
44.100	55.009	215.787	37.066	43.983	1.000	35.287	373.196	55.500	16.000
44.200	55.009	221.850	37.080	43.940	1.000	35.263	373.179	55.500	16.000
44.300	55.009	217.608	37.085	43.924	1.000	35.653	373.175	55.500	16.000
44.400	55.009	218.395	37.088	43.918	1.000	35.262	373.187	55.500	16.000
44.500	55.009	224.542	37.087	43.916	1.000	35.045	373.213	55.500	16.000
44.600	55.009	213.522	37.092	43.907	1.000	34.984	373.238	55.500	16.000
44.700	55.009	219.026	37.129	43.839	1.000	34.957	373.229	55.500	16.000
44.800	55.009	220.268	37.197	43.691	1.000	35.095	373.206	55.500	16.000
44.900	55.009	215.151	37.218	43.623	1.000	35.135	373.202	55.500	16.000
45.000	55.009	226.497	37.227	43.600	1.000	34.861	373.210	55.500	16.000
45.100	55.009	219.988	37.230	43.591	1.000	34.682	373.215	55.500	16.000
45.200	55.009	211.493	37.229	43.589	1.000	34.826	373.209	55.500	16.000
45.300	55.009	221.210	37.233	43.582	1.000	35.015	373.201	55.500	16.000
45.400	55.009	212.276	37.264	43.523	1.000	34.968	373.200	55.500	16.000
45.500	55.009	214.841	37.333	43.379	1.000	35.183	373.193	55.500	16.000
45.600	55.009	220.352	37.360	43.309	1.000	35.018	373.208	55.500	16.000
45.700	55.009	213.699	37.368	43.283	1.000	35.128	373.193	55.500	16.000
45.800	55.009	222.399	37.371	43.273	1.000	34.727	373.227	55.500	16.000
45.900	55.008	217.093	37.371	43.270	1.000	34.843	373.219	55.500	16.000
46.000	55.009	207.423	37.371	43.269	1.000	34.569	373.236	55.500	16.000
46.100	55.009	222.855	37.383	43.244	1.000	34.866	373.219	55.500	16.000
46.200	55.009	211.543	37.445	43.128	1.000	34.966	373.198	55.500	16.000
46.300	55.009	209.314	37.488	43.020	1.000	35.128	373.187	55.500	16.000
46.400	55.009	224.520	37.499	42.981	1.000	34.655	373.218	55.500	16.000
46.500	55.009	209.349	37.503	42.969	1.000	34.676	373.227	55.500	16.000
46.600	55.009	211.335	37.504	42.966	1.000	34.602	373.225	55.500	16.000
46.700	55.009	221.540	37.506	42.963	1.000	34.837	373.198	55.500	16.000
46.800	55.009	206.150	37.516	42.945	1.000	34.856	373.205	55.401	16.000
46.900	55.009	223.980	37.573	42.836	1.000	34.907	373.192	55.400	16.000
47.000	55.009	222.409	37.620	42.726	1.000	34.687	373.215	55.400	16.000
47.100	55.009	207.674	37.634	42.684	1.000	35.224	373.169	55.400	16.000
47.200	55.009	227.474	37.639	42.668	1.000	35.264	373.148	55.400	16.000
47.300	55.009	215.669	37.638	42.663	1.000	35.371	373.132	55.400	16.000
47.400	55.009	217.213	37.640	42.662	1.000	35.272	373.136	55.400	16.000
47.500	55.010	231.233	37.641	42.657	1.000	35.336	373.150	55.400	16.000
47.600	55.009	212.005	37.666	42.611	1.000	35.140	373.166	55.400	16.000
47.700	55.009	219.051	37.729	42.479	1.000	35.205	373.161	55.400	16.000
47.800	55.009	224.599	37.752	42.411	1.000	34.509	373.222	55.400	16.000
47.900	55.009	205.911	37.760	42.387	1.000	34.736	373.207	55.400	16.000
48.000	55.009	223.248	37.761	42.378	1.000	34.879	373.179	55.400	16.000
48.100	55.009	220.097	37.763	42.375	1.000	35.367	373.150	55.400	16.000
48.200	55.009	207.352	37.763	42.371	1.000	37.301	372.974	55.400	16.000
48.300	55.011	253.807	37.780	42.340	1.000	39.860	372.753	55.400	16.000
48.400	55.041	279.801	37.845	42.208	1.000	40.172	372.738	55.400	16.000
48.500	55.058	288.680	37.872	42.134	1.000	40.715	372.696	55.400	16.000
48.600	55.059	310.540	37.879	42.108	1.000	40.651	372.701	55.400	16.000
48.700	55.059	285.375	37.883	42.099	1.000	39.806	372.756	55.400	16.000
48.800	55.064	285.722	37.883	42.097	1.000	39.535	372.772	55.400	15.506
48.900	55.106	287.036	37.884	42.096	1.000	38.602	372.850	55.400	15.500
49.000	55.106	254.413	37.890	42.083	1.000	37.903	372.887	55.400	15.500
49.100	55.106	259.392	37.938	41.987	1.000	37.262	372.940	55.400	15.500
49.200	55.106	252.884	37.981	41.884	1.000	36.966	372.943	55.400	13.518
49.300	55.106	232.875	37.994	41.844	1.000	36.674	372.965	55.400	9.019
49.400	55.106	251.765	37.998	41.831	1.000	36.269	373.016	55.400	1.052
49.500	55.107	238.434	37.999	41.826	1.000	36.110	373.036	55.400	0.006
49.600	55.106	223.342	38.000	41.825	1.000	36.538	372.992	55.400	0.000
49.700	55.106	252.258	38.004	41.816	1.000	36.647	372.994	55.400	0.000
49.800	55.106	239.812	38.047	41.738	1.000	36.637	372.987	55.400	0.000
49.900	55.106	228.994	38.094	41.630	1.000	36.701	372.973	55.400	0.000
50.000	55.108	257.809	38.108	41.587	1.000	36.883	372.955	55.400	0.000
50.100	55.139	246.184	38.113	41.573	1.000	37.187	372.928	55.400	0.000
50.200	55.156	247.793	38.115	41.565	1.000	37.102	372.935	55.400	0.000
50.300	55.158	266.326	38.115	41.566	1.000	37.175	372.924	55.400	0.000
50.400	55.155	254.727	38.116	41.563	1.000	37.097	372.912	55.400	0.000
50.500	55.157	236.026	38.131	41.537	1.000	36.864	372.941	55.400	0.000
50.600	55.156	236.152	38.192	41.410	1.000	36.557	372.984	55.400	0.000
50.700	55.156	244.429	38.215	41.348	1.000	35.877	373.038	55.400	0.000
50.800	55.158	225.449	38.221	41.327	1.000	35.296	373.091	55.400	0.000
50.900	55.157	218.384	38.222	41.319	1.000	34.822	373.137	55.400	0.000
51.000	55.156	225.352	38.224	41.317	1.000	34.324	373.168	55.400	0.000
51.100	55.157	205.384	38.224	41.314	1.000	34.038	373.195	55.400	0.000
51.200	55.155	198.193	38.236	41.291	1.000	33.960	373.173	55.400	0.000
51.300	55.157	215.232	38.289	41.175	1.000	34.162	373.155	55.400	0.000
51.400	55.158	197.803	38.314	41.108	1.000	34.068	373.154	55.400	0.000
51.500	55.156	200.350	38.320	41.086	1.000	34.034	373.178	55.400	0.000
51.600	55.157	214.571	38.322	41.078	1.000	34.130	373.161	55.400	0.000
51.700	55.158	196.194	38.324	41.074	1.000	34.599	373.144	55.400	0.000
51.800	55.156	204.832	38.324	41.073	1.000	34.545	373.138	55.400	0.000
51.900	55.157	221.967	38.325	41.071	1.000	35.089	373.089	55.400	0.000
52.000	55.157	223.262	38.364	40.993	1.000	35.232	373.071	55.400	0.000
52.100	55.156	216.916	38.406	40.901	1.000	35.072	373.089	55.400	0.000
52.200	55.158	212.308	38.416	40.869	1.000	34.967	373.089	55.400	0.000
52.300	55.157	225.636	38.418	40.857	1.000	34.706	373.119	55.400	0.000
52.400	55.157	215.995	38.419	40.852	1.000	34.507	373.125	55.400	0.000
52.500	55.157	202.904	38.420	40.850	1.000	34.113	373.160	55.400	0.000
52.600	55.140	207.539	38.421	40.847	1.000	33.608	373.212	55.400	0.000
52.700	55.132	204.000	38.454	40.787	1.000	33.362	373.229	55.400	0.000
52.800	55.122	191.573	38.493	40.694	1.000	33.234	373.234	55.301	0.000
52.900	55.108	202.859	38.505	40.654	1.000	33.196	373.237	55.300	0.000
53.000	55.106	199.706	38.510	40.642	1.000	33.397	373.212	55.300	0.000
53.100	55.106	192.949	38.512	40.637	1.000	33.473	373.208	55.300	0.000
53.200	55.106	200.885	38.512	40.635	1.000	33.881	373.189	55.300	0.000
53.300	55.106	196.299	38.511	40.635	1.000	33.921	373.173	55.300	0.000
53.400	55.106	190.191	38.525	40.611	1.000	33.843	373.167	55.300	0.000
53.500	55.106	211.737	38.573	40.513	1.000	34.222	373.134	55.300	0.000
53.600	55.106	205.065	38.592	40.463	1.000	34.861	373.101	55.300	0.000
53.700	55.106	200.673	38.599	40.444	1.000	35.104	373.089	55.300	0.000
53.800	55.107	223.720	38.600	40.438	1.000	34.830	373.090	55.300	0.000
53.900	55.107	213.900	38.600	40.435	1.000	34.573	373.121	55.300	0.000
54.000	55.106	211.748	38.600	40.435	1.000	34.803	373.095	55.300	0.000
54.100	55.106	222.217	38.609	40.419	1.000	34.796	373.082	55.300	0.000
54.200	55.106	204.453	38.651	40.331	1.000	34.395	373.111	55.300	0.000
54.300	55.106	207.661	38.674	40.274	1.000	34.033	373.142	55.300	0.000
54.400	55.106	213.056	38.681	40.253	1.000	34.059	373.140	55.300	0.000
54.500	55.106	195.281	38.683	40.245	1.000	33.989	373.157	55.300	0.000
54.600	55.106	206.512	38.683	40.243	1.000	33.348	373.195	55.300	0.000
54.700	55.106	201.743	38.684	40.242	1.000	33.434	373.177	55.300	0.000
54.800	55.081	188.052	38.686	40.239	1.000	33.569	373.194	55.300	0.000
54.900	55.105	203.520	38.715	40.182	1.000	33.413	373.200	55.300	0.000
55.000	55.063	202.442	38.745	40.108	1.000	33.373	373.190	55.300	0.000
55.100	55.060	192.354	38.753	40.078	1.000	34.098	373.149	55.300	0.000
55.200	55.058	202.292	38.757	40.066	1.000	34.688	373.091	55.300	0.000
55.300	55.059	213.253	38.758	40.063	1.000	34.935	373.069	55.300	0.000
55.400	55.058	207.251	38.758	40.062	1.000	35.100	373.052	55.300	0.000
55.500	55.059	214.809	38.758	40.060	1.000	35.212	373.044	55.300	0.000
55.600	55.083	234.504	38.781	40.015	1.000	35.217	373.024	55.300	0.000
55.700	55.082	216.337	38.807	39.941	1.000	35.066	373.036	55.300	0.000
55.800	55.061	214.761	38.816	39.909	1.000	34.764	373.062	55.300	0.000
55.900	55.074	221.517	38.819	39.897	1.000	34.832	373.071	55.300	0.000
56.000	55.082	202.661	38.819	39.892	1.000	34.396	373.103	55.300	0.000
56.100	55.060	214.028	38.820	39.891	1.000	34.250	373.119	55.300	0.000
56.200	55.059	214.044	38.820	39.891	1.000	34.141	373.118	55.300	0.000
56.300	55.060	191.406	38.827	39.873	1.000	34.118	373.122	55.300	0.000
56.400	55.059	212.434	38.854	39.801	1.000	33.511	373.156	55.300	0.000
56.500	55.058	201.432	38.867	39.755	1.000	33.203	373.178	55.300	0.000
56.600	55.058	184.340	38.871	39.739	1.000	33.567	373.161	55.300	0.000
56.700	55.058	206.850	38.873	39.733	1.000	33.629	373.136	55.300	0.000
56.800	55.060	197.438	38.874	39.732	1.000	33.968	373.120	55.300	0.000
56.900	55.060	198.216	38.874	39.731	1.000	34.401	373.084	55.300	0.000
57.000	55.059	217.234	38.879	39.720	1.000	34.866	373.046	55.300	0.000
57.100	55.058	206.162	38.898	39.659	1.000	35.070	373.028	55.300	0.000
57.200	55.059	214.274	38.911	39.613	1.000	35.338	373.005	55.300	0.000
57.300	55.059	238.709	38.916	39.596	1.000	35.527	372.995	55.300	0.000
57.400	55.059	220.470	38.918	39.590	1.000	35.500	372.981	55.300	0.000
57.500	55.058	228.967	38.918	39.587	1.000	35.420	372.998	55.300	0.000
57.600	55.059	230.036	38.918	39.586	1.000	35.315	373.027	55.300	0.000
57.700	55.059	210.412	38.919	39.584	1.000	34.933	373.021	55.300	0.000
57.800	55.059	223.501	38.933	39.545	1.000	34.679	373.058	55.300	0.000
57.900	55.059	213.463	38.946	39.494	1.000	34.436	373.080	55.300	0.000
58.000	55.059	197.991	38.953	39.467	1.000	33.966	373.099	55.300	0.000
58.100	55.058	216.021	38.953	39.459	1.000	33.884	373.120	55.300	0.000
58.200	55.058	198.671	38.953	39.455	1.000	33.394	373.139	55.300	0.000
58.300	55.058	195.641	38.954	39.454	1.000	33.741	373.124	55.300	0.000
58.400	55.058	207.274	38.955	39.452	1.000	33.645	373.124	55.300	0.000
58.500	55.059	199.831	38.964	39.422	1.000	33.868	373.111	55.300	0.000
58.600	55.059	206.635	38.977	39.374	1.000	33.970	373.118	55.300	0.000
58.700	55.059	196.581	38.983	39.350	1.000	34.363	373.067	55.300	0.000
58.800	55.060	207.932	38.985	39.340	1.000	34.893	373.023	55.300	0.000
58.900	55.058	221.421	38.986	39.337	1.000	35.074	373.001	55.300	0.000
59.000	55.058	213.921	38.986	39.337	1.000	35.726	372.956	55.300	0.000
59.100	55.058	228.839	38.986	39.336	1.000	35.916	372.935	55.200	0.000
59.200	55.059	234.074	38.989	39.324	1.000	36.035	372.918	55.200	0.000
59.300	55.058	224.075	39.003	39.279	1.000	35.451	372.961	55.200	0.000
59.400	55.058	225.597	39.010	39.247	1.000	34.954	372.989	55.200	0.000
59.500	55.058	220.240	39.014	39.234	1.000	34.815	373.030	55.200	0.000
59.600	55.059	219.883	39.014	39.230	1.000	34.267	373.072	55.200	0.000
59.700	55.059	217.835	39.014	39.228	1.000	34.582	373.036	55.200	0.000
59.800	55.060	203.948	39.014	39.227	1.000	34.286	373.039	55.200	0.000
59.900	55.059	199.270	39.016	39.222	1.000	34.800	372.998	55.200	0.000
60.000	55.059	217.861	39.025	39.182	1.000	34.262	373.043	55.200	0.000
60.100	55.059	217.774	39.031	39.147	1.000	33.449	373.107	55.200	0.000
60.200	55.060	193.073	39.033	39.133	1.000	33.425	373.122	55.200	0.000
60.300	55.019	202.910	39.033	39.129	1.000	33.686	373.111	55.200	0.000
60.400	55.025	199.529	39.035	39.127	1.000	33.866	373.084	55.200	0.000
60.500	55.013	187.672	39.034	39.126	1.000	34.355	373.050	55.200	0.000
60.600	55.009	213.476	39.033	39.124	1.000	35.233	372.984	55.200	0.000
60.700	55.009	211.257	39.039	39.100	1.000	35.291	372.980	55.200	0.000
60.800	55.023	213.840	39.045	39.064	1.000	35.741	372.939	55.200	0.000
60.900	55.033	234.005	39.048	39.045	1.000	35.790	372.894	55.200	0.000
61.000	55.038	223.925	39.049	39.038	1.000	35.899	372.891	55.200	0.000
61.100	55.035	230.909	39.049	39.036	1.000	35.964	372.883	55.200	0.000
61.200	55.053	239.346	39.049	39.034	1.000	35.622	372.929	55.200	0.000
61.300	55.059	215.740	39.049	39.033	1.000	35.196	372.948	55.200	0.000
61.400	55.059	222.169	39.051	39.013	1.000	34.849	372.957	55.200	0.000
61.500	55.059	220.755	39.054	38.979	1.000	34.692	372.995	55.200	0.000
61.600	55.058	209.508	39.056	38.960	1.000	34.913	372.981	55.200	0.000
61.700	55.042	225.921	39.057	38.951	1.000	34.628	372.999	55.200	0.000
61.800	55.033	209.168	39.056	38.949	1.000	34.279	373.036	55.200	0.000
61.900	55.057	203.518	39.057	38.948	1.000	34.152	373.029	55.200	0.000
62.000	55.036	215.666	39.058	38.949	1.000	33.768	373.051	55.200	0.000
62.100	55.009	188.012	39.056	38.940	1.000	33.437	373.104	55.200	0.000
62.200	55.009	199.145	39.057	38.901	1.000	33.467	373.096	55.200	0.000
62.300	55.009	211.378	39.057	38.881	1.000	34.098	373.049	55.200	0.000
62.400	55.009	193.329	39.057	38.872	1.000	34.473	373.000	55.200	0.000
62.500	55.009	221.770	39.058	38.871	1.000	35.234	372.943	55.200	0.000
62.600	55.013	223.846	39.056	38.870	1.000	35.740	372.911	55.200	0.000
62.700	55.028	220.587	39.058	38.867	1.000	36.268	372.875	55.200	0.000
62.800	55.013	241.904	39.056	38.855	1.000	36.415	372.843	55.200	0.000
62.900	55.029	227.171	39.054	38.820	1.000	35.798	372.884	55.200	0.000
63.000	55.036	227.021	39.053	38.803	1.000	35.437	372.898	55.200	0.000
63.100	55.035	232.577	39.052	38.796	1.000	35.145	372.917	55.200	0.000
63.200	55.022	211.692	39.052	38.794	1.000	34.929	372.919	55.200	0.000
63.300	55.019	218.596	39.052	38.793	1.000	35.047	372.926	55.200	0.000
63.400	55.023	216.095	39.053	38.792	1.000	35.076	372.923	55.200	0.000
63.500	55.018	210.590	39.050	38.781	1.000	34.678	372.972	55.200	0.000
63.600	55.019	220.075	39.046	38.754	1.000	34.442	372.978	55.200	0.000
63.700	55.009	205.786	39.043	38.735	1.000	34.165	373.014	55.200	0.000
63.800	55.009	201.817	39.043	38.727	1.000	33.880	373.030	55.200	0.000
63.900	55.009	205.869	39.043	38.725	1.000	33.673	373.036	55.200	0.000
64.000	55.009	194.632	39.043	38.724	1.000	33.714	373.045	55.200	0.000
64.100	55.009	203.682	39.043	38.722	1.000	34.015	373.020	55.200	0.000
64.200	55.009	212.153	39.039	38.713	1.000	34.119	373.002	55.200	0.000
64.300	55.009	209.701	39.032	38.690	1.000	34.693	372.946	55.200	0.000
64.400	55.009	223.379	39.027	38.670	1.000	35.458	372.890	55.200	0.000
64.500	55.009	228.002	39.026	38.661	1.000	35.846	372.867	55.200	0.000
64.600	55.009	226.635	39.027	38.658	1.000	36.086	372.851	55.200	0.000
64.700	55.009	235.902	39.025	38.658	1.000	35.631	372.879	55.200	0.000
64.800	55.009	226.504	39.026	38.657	1.000	35.198	372.904	55.200	0.000
64.900	55.009	226.165	39.025	38.654	1.000	35.029	372.916	55.200	0.000
65.000	55.009	229.060	39.016	38.637	1.000	35.337	372.910	55.200	0.000
65.100	55.009	213.941	39.006	38.612	1.000	35.133	372.914	55.200	0.000
65.200	55.009	216.074	39.002	38.600	1.000	34.795	372.911	55.200	0.000
65.300	55.009	218.018	39.000	38.595	1.000	35.170	372.891	55.200	0.000
65.400	55.020	210.472	39.000	38.594	1.000	34.568	372.939	55.103	0.000
65.500	55.023	216.014	39.000	38.593	1.000	34.258	372.976	55.100	0.000
65.600	55.009	208.848	38.999	38.591	1.000	33.934	373.004	55.100	0.000
65.700	55.009	198.531	38.989	38.576	1.000	33.656	373.032	55.100	0.000
65.800	55.009	201.780	38.977	38.555	1.000	33.475	373.022	55.100	0.000
65.900	55.009	195.726	38.972	38.543	1.000	34.013	372.996	55.100	0.000
66.000	55.009	200.927	38.970	38.538	1.000	34.207	372.974	55.100	0.000
66.100	55.009	214.423	38.970	38.536	1.000	35.088	372.907	55.100	0.000
66.200	55.009	216.762	38.970	38.535	1.000	35.437	372.836	55.100	0.000
66.300	55.009	226.815	38.969	38.534	1.000	35.840	372.832	55.100	0.000
66.400	55.009	233.548	38.962	38.526	1.000	36.418	372.794	55.100	0.000
66.500	55.009	230.838	38.948	38.507	1.000	36.223	372.804	55.100	0.000
66.600	55.009	235.617	38.940	38.491	1.000	35.889	372.824	55.100	0.000
66.700	55.017	226.369	38.937	38.486	1.000	35.555	372.854	55.100	0.000
66.800	55.021	215.643	38.936	38.483	1.000	34.912	372.899	55.100	0.000
66.900	55.009	220.281	38.936	38.482	1.000	34.694	372.923	55.100	0.000
67.000	55.009	215.660	38.935	38.482	1.000	34.896	372.906	55.100	0.000
67.100	55.009	215.519	38.930	38.477	1.000	34.944	372.881	55.100	0.000
67.200	55.009	220.365	38.917	38.461	1.000	34.870	372.857	55.100	0.000
67.300	55.009	211.633	38.906	38.446	1.000	34.603	372.897	55.100	0.000
67.400	55.009	211.435	38.903	38.440	1.000	34.077	372.938	55.100	0.000
67.500	55.009	209.298	38.903	38.437	1.000	33.877	372.973	55.100	0.000
67.600	55.010	199.259	38.902	38.436	1.000	33.568	373.006	55.100	0.000
67.700	55.009	199.942	38.901	38.435	1.000	33.481	373.007	55.100	0.000
67.800	55.009	200.819	38.899	38.433	1.000	34.450	372.925	55.100	0.000
67.900	55.009	204.887	38.889	38.422	1.000	34.643	372.915	55.100	0.000
68.000	55.009	218.858	38.874	38.405	1.000	35.352	372.854	55.100	0.000
68.100	55.009	222.513	38.870	38.397	1.000	35.687	372.814	55.100	0.000
68.200	55.009	234.590	38.869	38.395	1.000	36.159	372.759	55.100	0.000
68.300	55.010	238.815	38.868	38.394	1.000	36.156	372.761	55.100	0.000
68.400	55.010	229.967	38.868	38.393	1.000	36.212	372.760	55.100	0.000
68.500	55.009	232.450	38.866	38.391	1.000	35.872	372.801	55.100	0.000
68.600	55.009	227.469	38.855	38.381	1.000	35.579	372.828	55.100	0.000
68.700	55.009	220.027	38.841	38.364	1.000	35.258	372.852	55.100	0.000
68.800	55.009	220.042	38.834	38.354	1.000	34.887	372.881	55.100	0.000
68.900	55.008	213.454	38.832	38.350	1.000	34.893	372.876	55.100	0.000
69.000	55.009	216.400	38.832	38.349	1.000	34.907	372.883	55.100	0.000
69.100	55.009	221.080	38.831	38.349	1.000	34.880	372.862	55.100	0.000
69.200	55.009	208.519	38.830	38.348	1.000	34.475	372.865	55.100	0.000
69.300	55.009	208.597	38.824	38.343	1.000	33.908	372.911	55.100	0.000
69.400	55.009	207.017	38.809	38.327	1.000	33.246	372.970	55.100	0.000
69.500	55.009	192.681	38.797	38.311	1.000	33.319	372.986	55.100	0.000
69.600	55.009	196.998	38.793	38.306	1.000	33.389	372.991	55.100	0.000
69.700	55.010	202.271	38.792	38.304	1.000	34.378	372.918	55.100	0.000
69.800	55.009	206.994	38.792	38.304	1.000	34.942	372.868	55.100	0.000
69.900	55.009	220.530	38.791	38.303	1.000	35.453	372.801	55.100	0.000
70.000	55.010	222.053	38.785	38.297	1.000	35.878	372.779	55.100	0.000
70.100	55.009	229.066	38.769	38.282	1.000	35.962	372.771	55.100	0.000
70.200	55.009	236.742	38.754	38.268	1.000	35.565	372.802	55.100	0.000
70.300	55.009	226.640	38.750	38.261	1.000	35.582	372.787	55.100	0.000
70.400	55.009	228.006	38.749	38.259	1.000	35.668	372.781	55.100	0.000
70.500	55.009	227.269	38.748	38.259	1.000	35.197	372.826	55.100	0.000
70.600	55.009	215.551	38.747	38.259	1.000	35.035	372.835	55.100	0.000
70.700	55.009	221.291	38.746	38.257	1.000	35.047	372.835	55.100	0.000
70.800	55.009	215.580	38.733	38.248	1.000	34.851	372.851	55.100	0.000
70.900	55.009	211.631	38.713	38.232	1.000	34.916	372.827	55.100	0.000
71.000	55.009	218.364	38.706	38.224	1.000	34.989	372.851	55.100	0.000
71.100	55.009	209.488	38.704	38.221	1.000	34.434	372.878	55.100	0.000
71.200	55.009	204.439	38.704	38.221	1.000	33.912	372.909	55.100	0.000
71.300	55.009	207.712	38.704	38.221	1.000	33.225	372.951	55.100	0.000
71.400	55.009	193.820	38.702	38.219	1.000	33.942	372.916	55.100	0.000
71.500	55.009	198.827	38.693	38.212	1.000	33.911	372.907	55.100	0.000
71.600	55.009	206.521	38.675	38.199	1.000	34.325	372.881	55.002	0.000
71.700	55.009	205.567	38.667	38.191	1.000	35.411	372.794	55.000	0.000
71.800	55.009	225.324	38.664	38.188	1.000	35.963	372.744	55.000	0.000
71.900	55.009	231.943	38.662	38.188	1.000	36.200	372.728	55.000	0.000
72.000	55.009	231.953	38.662	38.187	1.000	36.166	372.737	55.000	0.000
72.100	55.009	242.098	38.663	38.186	1.000	35.951	372.750	55.000	0.000
72.200	55.009	226.153	38.658	38.183	1.000	35.950	372.727	55.000	0.000
72.300	55.009	226.097	38.639	38.171	1.000	35.260	372.776	55.000	0.000
72.400	55.009	230.951	38.625	38.161	1.000	35.282	372.765	55.000	0.000
72.500	55.009	217.845	38.621	38.158	1.000	35.405	372.767	55.000	0.000
72.600	55.010	223.001	38.619	38.157	1.000	34.908	372.801	55.000	0.000
72.700	55.009	218.321	38.619	38.156	1.000	34.836	372.829	55.000	0.000
72.800	55.009	206.158	38.618	38.157	1.000	35.089	372.807	55.000	0.000
72.900	55.009	218.464	38.612	38.154	1.000	34.750	372.827	55.000	0.000
73.000	55.009	209.454	38.598	38.142	1.000	33.952	372.879	55.000	0.000
73.100	55.009	198.747	38.584	38.132	1.000	33.272	372.933	55.000	0.000
73.200	55.009	204.776	38.579	38.126	1.000	33.438	372.912	55.000	0.000
73.300	55.009	191.962	38.578	38.124	1.000	33.520	372.925	55.000	0.000
73.400	55.009	196.408	38.578	38.124	1.000	33.786	372.886	55.000	0.000
73.500	55.009	212.795	38.579	38.125	1.000	35.100	372.791	55.000	0.000
73.600	55.009	212.008	38.577	38.124	1.000	35.998	372.721	55.000	0.000
73.700	55.009	230.512	38.567	38.118	1.000	36.502	372.679	55.000	0.000
73.800	55.009	239.816	38.546	38.107	1.000	36.146	372.695	55.000	0.000
73.900	55.009	229.862	38.539	38.100	1.000	36.305	372.692	55.000	0.000
74.000	55.009	242.348	38.537	38.099	1.000	36.354	372.694	55.000	0.000
74.100	55.009	230.983	38.536	38.098	1.000	35.537	372.742	55.000	0.000
74.200	55.009	222.048	38.536	38.098	1.000	35.607	372.732	55.000	0.000
74.300	55.009	232.927	38.533	38.098	1.000	35.633	372.718	55.000	0.000
74.400	55.009	220.857	38.525	38.094	1.000	35.104	372.766	55.000	0.000
74.500	55.009	219.064	38.510	38.083	1.000	35.106	372.772	55.000	0.000
74.600	55.009	226.898	38.503	38.078	1.000	34.960	372.796	55.000	0.000
74.700	55.009	205.849	38.499	38.075	1.000	34.413	372.815	55.000	0.000
74.800	55.010	213.180	38.499	38.075	1.000	34.572	372.816	55.000	0.000
74.900	55.009	212.236	38.499	38.074	1.000	33.843	372.875	55.000	0.000
75.000	55.009	191.464	38.499	38.075	1.000	33.683	372.874	55.000	0.000
75.100	55.009	207.120	38.494	38.072	1.000	33.687	372.868	55.000	0.000
75.200	55.009	202.581	38.480	38.065	1.000	33.805	372.872	55.000	0.000
75.300	55.010	194.890	38.470	38.057	1.000	34.488	372.809	55.000	0.000
75.400	55.009	223.083	38.466	38.053	1.000	35.700	372.702	55.000	0.000
75.500	55.009	218.992	38.466	38.052	1.000	35.771	372.714	55.000	0.000
75.600	55.009	220.781	38.465	38.052	1.000	36.093	372.670	55.000	0.000
75.700	55.009	240.022	38.465	38.052	1.000	35.978	372.680	55.000	0.000
75.800	55.009	221.929	38.463	38.051	1.000	36.111	372.676	55.000	0.000
75.900	55.009	231.537	38.451	38.044	1.000	35.760	372.703	55.000	0.000
76.000	55.009	231.340	38.441	38.037	1.000	35.741	372.700	55.000	0.000
76.100	55.009	215.312	38.438	38.034	1.000	35.653	372.701	55.000	0.000
76.200	55.009	232.131	38.437	38.032	1.000	35.295	372.719	55.000	0.000
76.300	55.009	221.008	38.436	38.033	1.000	34.751	372.750	55.000	0.000
76.400	55.009	209.135	38.436	38.033	1.000	34.767	372.752	55.000	0.000
76.500	55.009	228.557	38.434	38.033	1.000	34.876	372.766	55.000	0.000
76.600	55.009	206.958	38.431	38.029	1.000	34.476	372.803	55.000	0.000
76.700	55.010	203.688	38.420	38.022	1.000	34.009	372.822	55.000	0.000
76.800	55.009	213.594	38.415	38.019	1.000	33.915	372.813	55.000	0.000
76.900	55.009	188.944	38.414	38.017	1.000	33.593	372.852	55.000	0.000
77.000	55.009	199.031	38.413	38.015	1.000	34.098	372.828	55.000	0.000
77.100	55.009	211.064	38.413	38.014	1.000	34.228	372.812	55.000	0.000
77.200	55.009	198.505	38.413	38.014	1.000	35.354	372.719	55.000	0.000
77.300	55.009	223.994	38.409	38.013	1.000	35.886	372.678	55.000	0.000
77.400	55.009	225.969	38.401	38.006	1.000	36.218	372.637	55.000	0.000
77.500	55.009	220.990	38.397	38.002	1.000	36.321	372.629	55.000	0.000
77.600	55.009	246.892	38.397	38.001	1.000	36.630	372.627	55.000	0.000
77.700	55.009	231.500	38.396	38.001	1.000	35.425	372.683	55.000	0.000
77.800	55.009	224.635	38.395	38.000	1.000	35.498	372.669	54.901	0.000
77.900	55.009	234.239	38.395	38.000	1.000	35.699	372.654	54.900	0.000
78.000	55.009	216.105	38.394	38.000	1.000	35.468	372.688	54.900	0.000
78.100	55.009	219.449	38.389	37.993	1.000	35.320	372.706	54.900	0.000
78.200	55.009	226.257	38.387	37.985	1.000	35.242	372.702	54.900	0.000
78.300	55.009	206.659	38.385	37.983	1.000	34.598	372.739	54.900	0.000
78.400	55.009	220.265	38.386	37.982	1.000	34.499	372.751	54.900	0.000
78.500	55.009	215.640	38.385	37.981	1.000	34.021	372.794	54.900	0.000
78.600	55.009	192.371	38.385	37.982	1.000	33.910	372.800	54.900	0.000
78.700	55.009	203.956	38.385	37.980	1.000	33.703	372.814	54.900	0.000
78.800	55.009	197.929	38.382	37.976	1.000	33.477	372.823	54.900	0.000
78.900	55.009	196.842	38.378	37.967	1.000	33.772	372.803	54.900	0.000
79.000	55.009	212.825	38.376	37.963	1.000	34.881	372.711	54.900	0.000
79.100	55.010	209.174	38.377	37.962	1.000	35.441	372.681	54.900	0.000
79.200	55.009	222.762	38.377	37.962	1.000	36.036	372.632	54.900	0.000
79.300	55.009	236.536	38.377	37.961	1.000	36.718	372.561	54.900	0.000
79.400	55.009	229.351	38.376	37.962	1.000	36.674	372.579	54.900	0.000
79.500	55.009	243.912	38.376	37.957	1.000	36.158	372.637	54.900	0.000
79.600	55.009	235.625	38.376	37.944	1.000	35.698	372.653	54.900	0.000
79.700	55.009	223.449	38.375	37.941	1.000	35.755	372.646	54.900	0.000
79.800	55.009	235.837	38.375	37.937	1.000	35.661	372.638	54.900	0.000
79.900	55.010	219.579	38.374	37.936	1.000	35.371	372.681	54.900	0.000
80.000	55.010	217.495	38.374	37.936	1.000	35.227	372.686	54.900	0.000
80.100	55.009	227.394	38.373	37.937	1.000	35.059	372.696	54.900	0.000
80.200	55.008	211.904	38.374	37.933	1.000	34.592	372.719	54.900	0.000
80.300	55.009	212.301	38.374	37.920	1.000	34.225	372.741	54.900	0.000
80.400	55.009	211.407	38.375	37.913	1.000	33.901	372.776	54.900	0.000
80.500	55.009	200.107	38.376	37.910	1.000	33.765	372.793	54.900	0.000
80.600	55.009	206.068	38.376	37.910	1.000	33.861	372.806	54.900	0.000
80.700	55.009	198.451	38.376	37.909	1.000	34.129	372.774	54.900	0.000
80.800	55.009	191.918	38.377	37.909	1.000	34.235	372.763	54.900	0.000
80.900	55.009	210.901	38.377	37.908	1.000	34.858	372.697	54.900	0.000
81.000	55.009	206.280	38.382	37.898	1.000	35.741	372.621	54.900	0.000
81.100	55.009	220.767	38.385	37.887	1.000	35.927	372.606	54.900	0.000
81.200	55.009	236.766	38.387	37.883	1.000	36.373	372.568	54.900	0.000
81.300	55.009	228.326	38.387	37.881	1.000	36.107	372.590	54.900	0.000
81.400	55.009	235.274	38.387	37.879	1.000	35.952	372.601	54.900	0.000
81.500	55.009	233.453	38.386	37.880	1.000	36.245	372.599	54.900	0.000
81.600	55.009	224.522	38.388	37.879	1.000	35.555	372.639	54.900	0.000
81.700	55.009	233.578	38.393	37.866	1.000	36.028	372.605	54.900	0.000
81.800	55.009	219.706	38.396	37.852	1.000	35.678	372.600	54.900	0.000
81.900	55.009	220.278	38.399	37.846	1.000	35.518	372.615	54.900	0.000
82.000	55.009	228.980	38.399	37.844	1.000	35.086	372.662	54.900	0.000
82.100	55.009	213.388	38.399	37.844	1.000	34.926	372.678	54.900	0.000
82.200	55.010	210.031	38.400	37.843	1.000	34.156	372.727	54.900	0.000
82.300	55.009	209.995	38.400	37.844	1.000	34.217	372.714	54.900	0.000
82.400	55.010	200.342	38.402	37.835	1.000	33.814	372.768	54.900	0.000
82.500	55.009	200.464	38.410	37.815	1.000	34.233	372.735	54.900	0.000
82.600	55.009	197.835	38.414	37.805	1.000	34.251	372.736	54.900	0.000
82.700	55.009	196.552	38.415	37.801	1.000	34.699	372.718	54.900	0.000
82.800	55.009	216.621	38.416	37.800	1.000	35.007	372.676	54.900	0.000
82.900	55.010	220.162	38.417	37.799	1.000	35.802	372.601	54.900	0.000
83.000	55.009	220.199	38.415	37.799	1.000	36.301	372.550	54.900	0.000
83.100	55.009	223.249	38.421	37.794	1.000	36.163	372.561	54.900	0.000
83.200	55.009	245.952	38.431	37.771	1.000	36.048	372.571	54.900	0.000
83.300	55.009	223.608	38.434	37.759	1.000	35.824	372.591	54.900	0.000
83.400	55.009	225.480	38.437	37.754	1.000	35.499	372.595	54.900	0.000
83.500	55.009	236.963	38.439	37.749	1.000	35.359	372.614	54.900	0.000
83.600	55.009	215.715	38.438	37.750	1.000	35.771	372.584	54.900	0.000
83.700	55.010	230.895	38.438	37.749	1.000	35.914	372.572	54.900	0.000
83.800	55.009	227.267	38.439	37.749	1.000	35.174	372.619	54.900	0.000
83.900	55.009	208.033	38.448	37.729	1.000	35.076	372.633	54.900	0.000
84.000	55.008	225.943	38.457	37.706	1.000	34.610	372.673	54.801	0.000
84.100	55.009	207.985	38.460	37.696	1.000	34.024	372.698	54.800	0.000
84.200	55.008	197.733	38.461	37.693	1.000	33.724	372.713	54.800	0.000
84.300	55.009	209.442	38.460	37.694	1.000	33.673	372.741	54.800	0.000
84.400	55.009	187.994	38.461	37.692	1.000	34.027	372.708	54.800	0.000
84.500	55.009	193.789	38.461	37.692	1.000	34.217	372.703	54.800	0.000
84.600	55.009	207.130	38.470	37.673	1.000	34.894	372.652	54.800	0.000
84.700	55.009	220.582	38.480	37.646	1.000	35.195	372.638	54.800	0.000
84.800	55.009	213.092	38.483	37.637	1.000	35.483	372.589	54.800	0.000
84.900	55.009	215.574	38.485	37.633	1.000	36.160	372.532	54.800	0.000
85.000	55.009	240.197	38.485	37.631	1.000	36.286	372.527	54.800	0.000
85.100	55.009	226.600	38.485	37.631	1.000	36.193	372.512	54.800	0.000
85.200	55.009	231.193	38.484	37.631	1.000	36.227	372.509	54.800	0.000
85.300	55.009	238.288	38.488	37.622	1.000	35.725	372.535	54.800	0.000
85.400	55.009	217.346	38.500	37.591	1.000	35.529	372.568	54.800	0.000
85.500	55.009	227.818	38.508	37.572	1.000	35.979	372.552	54.800	0.000
85.600	55.009	228.220	38.509	37.567	1.000	35.289	372.603	54.800	0.000
85.700	55.009	214.327	38.510	37.563	1.000	34.878	372.628	54.800	0.000
85.800	55.009	222.465	38.509	37.562	1.000	34.768	372.629	54.800	0.000
85.900	55.009	209.236	38.511	37.562	1.000	33.989	372.696	54.800	0.000
86.000	55.009	200.851	38.513	37.557	1.000	33.639	372.719	54.800	0.000
86.100	55.009	206.790	38.528	37.524	1.000	33.912	372.691	54.800	0.000
86.200	55.009	190.855	38.537	37.503	1.000	34.164	372.680	54.800	0.000
86.300	55.009	198.522	38.539	37.496	1.000	34.224	372.677	54.800	0.000
86.400	55.009	208.366	38.540	37.493	1.000	34.670	372.647	54.800	0.000
86.500	55.009	199.087	38.540	37.492	1.000	35.192	372.600	54.800	0.000
86.600	55.010	218.615	38.539	37.491	1.000	35.713	372.557	54.800	0.000
86.700	55.009	221.793	38.541	37.491	1.000	35.828	372.555	54.800	0.000
86.800	55.009	215.391	38.553	37.467	1.000	36.336	372.519	54.800	0.000
86.900	55.009	236.527	38.563	37.437	1.000	36.328	372.502	54.800	0.000
87.000	55.009	229.221	38.568	37.424	1.000	36.458	372.485	54.800	0.000
87.100	55.009	227.754	38.570	37.420	1.000	35.719	372.522	54.800	0.000
87.200	55.009	239.669	38.569	37.418	1.000	35.946	372.501	54.800	0.000
87.300	55.009	224.296	38.570	37.418	1.000	35.665	372.523	54.800	0.000
87.400	55.009	227.616	38.571	37.417	1.000	35.459	372.541	54.800	0.000
87.500	55.009	232.341	38.580	37.396	1.000	35.285	372.569	54.800	0.000
87.600	55.009	208.895	38.592	37.363	1.000	35.141	372.584	54.800	0.000
87.700	55.009	218.301	38.599	37.348	1.000	34.433	372.635	54.800	0.000
87.800	55.009	212.464	38.601	37.341	1.000	34.404	372.654	54.800	0.000
87.900	55.010	194.068	38.601	37.340	1.000	33.669	372.699	54.800	0.000
88.000	55.009	194.065	38.602	37.339	1.000	34.132	372.647	54.800	0.000
88.100	55.010	208.245	38.602	37.339	1.000	34.232	372.648	54.800	0.000
88.200	55.009	194.504	38.606	37.331	1.000	34.619	372.590	54.800	0.000
88.300	55.009	201.846	38.622	37.296	1.000	34.454	372.608	54.800	0.000
88.400	55.010	217.909	38.630	37.272	1.000	34.932	372.587	54.800	0.000
88.500	55.010	214.319	38.634	37.263	1.000	35.361	372.559	54.800	0.000
88.600	55.009	226.249	38.635	37.260	1.000	35.490	372.545	54.800	0.000
88.700	55.009	226.508	38.635	37.258	1.000	36.079	372.493	54.800	0.000
88.800	55.009	217.722	38.636	37.257	1.000	36.247	372.482	54.800	0.000
88.900	55.009	232.931	38.640	37.252	1.000	36.319	372.480	54.800	0.000
89.000	55.009	229.769	38.654	37.217	1.000	36.113	372.492	54.800	0.000
89.100	55.009	226.269	38.665	37.190	1.000	35.817	372.507	54.800	0.000
89.200	55.009	235.294	38.668	37.179	1.000	35.595	372.512	54.800	0.000
89.300	55.009	220.556	38.669	37.174	1.000	35.577	372.504	54.800	0.000
89.400	55.009	222.618	38.670	37.173	1.000	35.207	372.529	54.800	0.000
89.500	55.009	222.129	38.670	37.173	1.000	34.823	372.584	54.800	0.000
89.600	55.009	205.504	38.670	37.172	1.000	34.826	372.594	54.800	0.000
89.700	55.009	214.353	38.679	37.144	1.000	33.897	372.643	54.800	0.000
89.800	55.009	207.289	38.692	37.108	1.000	34.218	372.622	54.800	0.000
89.900	55.009	197.552	38.697	37.089	1.000	34.404	372.614	54.800	0.000
90.000	55.009	216.206	38.699	37.082	1.000	34.583	372.585	54.800	0.000
90.100	55.009	207.926	38.699	37.080	1.000	34.675	372.590	54.800	0.000
90.200	55.009	206.707	38.699	37.079	1.000	35.367	372.520	54.703	0.000
90.300	55.009	224.609	38.699	37.079	1.000	35.236	372.535	54.700	0.000
90.400	55.009	211.678	38.708	37.056	1.000	35.731	372.490	54.700	0.000
90.500	55.009	223.080	38.719	37.016	1.000	35.971	372.484	54.700	0.000
90.600	55.009	232.328	38.724	36.995	1.000	36.433	372.442	54.700	0.000
90.700	55.009	224.495	38.726	36.988	1.000	36.100	372.459	54.700	0.000
90.800	55.009	236.615	38.726	36.985	1.000	36.156	372.454	54.700	0.000
90.900	55.009	234.167	38.727	36.984	1.000	36.333	372.453	54.700	0.000
91.000	55.009	222.593	38.727	36.983	1.000	35.749	372.493	54.700	0.000
91.100	55.009	225.937	38.731	36.974	1.000	35.700	372.490	54.700	0.000
91.200	55.009	215.106	38.745	36.935	1.000	35.288	372.510	54.700	0.000
91.300	55.009	226.525	38.752	36.905	1.000	35.212	372.493	54.700	0.000
91.400	55.009	214.038	38.756	36.894	1.000	34.433	372.549	54.700	0.000
91.500	55.009	200.406	38.757	36.891	1.000	34.259	372.581	54.700	0.000
91.600	55.009	215.071	38.756	36.888	1.000	34.348	372.595	54.700	0.000
91.700	55.009	197.914	38.756	36.888	1.000	33.972	372.592	54.700	0.000
91.800	55.009	201.821	38.758	36.882	1.000	34.580	372.563	54.700	0.000
91.900	55.009	215.844	38.772	36.842	1.000	35.036	372.553	54.700	0.000
92.000	55.010	201.489	38.780	36.810	1.000	34.786	372.553	54.700	0.000
92.100	55.009	212.917	38.783	36.797	1.000	35.076	372.520	54.700	0.000
92.200	55.009	220.952	38.784	36.791	1.000	35.249	372.511	54.700	0.000
92.300	55.009	215.772	38.784	36.790	1.000	35.466	372.488	54.700	0.000
92.400	55.009	230.741	38.784	36.789	1.000	36.090	372.439	54.700	0.000
92.500	55.009	227.476	38.785	36.789	1.000	35.768	372.467	54.700	0.000
92.600	55.009	221.886	38.795	36.764	1.000	35.892	372.466	54.700	0.000
92.700	55.009	238.605	38.805	36.725	1.000	36.497	372.427	54.700	0.000
92.800	55.010	229.141	38.809	36.704	1.000	35.799	372.455	54.700	0.000
92.900	55.009	214.792	38.810	36.696	1.000	35.371	372.484	54.700	0.000
93.000	55.009	234.714	38.810	36.693	1.000	35.555	372.468	54.700	0.000
93.100	55.009	226.767	38.810	36.692	1.000	35.056	372.483	54.700	0.000
93.200	55.009	208.161	38.810	36.691	1.000	34.806	372.518	54.700	0.000
93.300	55.009	217.726	38.816	36.669	1.000	34.386	372.530	54.700	0.000
93.400	55.008	203.976	38.826	36.630	1.000	33.993	372.565	54.700	0.000
93.500	55.009	198.396	38.831	36.607	1.000	34.441	372.540	54.700	0.000
93.600	55.009	212.698	38.834	36.601	1.000	34.102	372.565	54.700	0.000
93.700	55.009	196.769	38.833	36.597	1.000	34.755	372.533	54.700	0.000
93.800	55.009	202.606	38.834	36.595	1.000	35.089	372.497	54.700	0.000
93.900	55.009	216.704	38.834	36.595	1.000	35.075	372.486	54.700	0.000
94.000	55.009	203.773	38.837	36.586	1.000	35.182	372.485	54.700	0.000
94.100	55.009	218.435	38.844	36.550	1.000	35.379	372.471	54.700	0.000
94.200	55.009	221.406	38.850	36.519	1.000	35.700	372.434	54.700	0.000
94.300	55.009	213.714	38.852	36.506	1.000	36.045	372.418	54.700	0.000
94.400	55.009	233.906	38.854	36.502	1.000	36.108	372.395	54.700	0.000
94.500	55.009	222.799	38.853	36.502	1.000	36.257	372.373	54.700	0.000
94.600	55.009	227.078	38.853	36.500	1.000	36.007	372.399	54.700	0.000
94.700	55.009	240.674	38.856	36.493	1.000	35.863	372.418	54.700	0.000
94.800	55.009	212.723	38.865	36.447	1.000	35.786	372.434	54.700	0.000
94.900	55.009	233.499	38.871	36.417	1.000	35.361	372.449	54.700	0.000
95.000	55.009	228.732	38.872	36.408	1.000	35.370	372.473	54.700	0.000
95.100	55.009	203.119	38.872	36.403	1.000	34.738	372.524	54.700	0.000
95.200	55.009	217.387	38.872	36.402	1.000	34.507	372.514	54.700	0.000
95.300	55.009	203.724	38.873	36.401	1.000	34.396	372.520	54.700	0.000
95.400	55.009	198.023	38.874	36.393	1.000	33.788	372.582	54.700	0.000
95.500	55.009	212.451	38.880	36.360	1.000	34.437	372.517	54.700	0.000
95.600	55.009	200.764	38.885	36.327	1.000	34.845	372.479	54.700	0.000
95.700	55.010	209.362	38.887	36.316	1.000	35.183	372.482	54.700	0.000
95.800	55.009	218.123	38.887	36.312	1.000	35.055	372.482	54.700	0.000
95.900	55.009	212.355	38.887	36.310	1.000	35.006	372.478	54.700	0.000
96.000	55.009	225.156	38.887	36.310	1.000	35.707	372.431	54.700	0.000
96.100	55.009	218.892	38.890	36.297	1.000	35.459	372.414	54.700	0.000
96.200	55.009	220.561	38.898	36.264	1.000	35.982	372.386	54.700	0.000
96.300	55.009	233.280	38.902	36.237	1.000	36.582	372.357	54.601	0.000
96.400	55.009	226.644	38.904	36.227	1.000	36.127	372.383	54.600	0.000
96.500	55.010	232.753	38.904	36.223	1.000	36.254	372.363	54.600	0.000
96.600	55.009	233.908	38.904	36.221	1.000	35.951	372.379	54.600	0.000
96.700	55.009	220.028	38.903	36.220	1.000	35.200	372.427	54.600	0.000
96.800	55.009	222.727	38.905	36.215	1.000	35.294	372.424	54.600	0.000
96.900	55.009	216.927	38.911	36.191	1.000	35.012	372.464	54.600	0.000
97.000	55.009	206.824	38.917	36.160	1.000	34.476	372.510	54.600	0.000
97.100	55.009	209.668	38.919	36.144	1.000	34.321	372.509	54.600	0.000
97.200	55.009	202.043	38.921	36.138	1.000	34.441	372.501	54.600	0.000
97.300	55.009	205.419	38.921	36.137	1.000	34.544	372.489	54.600	0.000
97.400	55.009	216.846	38.921	36.137	1.000	34.788	372.475	54.600	0.000
97.500	55.009	208.071	38.921	36.134	1.000	35.027	372.443	54.600	0.000
97.600	55.009	199.454	38.925	36.113	1.000	34.849	372.470	54.600	0.000
97.700	55.009	206.374	38.931	36.080	1.000	35.475	372.421	54.600	0.000
97.800	55.009	217.966	38.934	36.061	1.000	35.416	372.424	54.600	0.000
97.900	55.009	227.167	38.935	36.055	1.000	35.410	372.414	54.600	0.000
98.000	55.009	224.231	38.935	36.053	1.000	35.824	372.384	54.600	0.000
98.100	55.009	221.810	38.936	36.051	1.000	35.882	372.370	54.600	0.000
98.200	55.009	232.756	38.936	36.051	1.000	36.352	372.330	54.600	0.000
98.300	55.009	230.665	38.937	36.039	1.000	36.410	372.323	54.600	0.000
98.400	55.009	230.291	38.940	36.007	1.000	35.904	372.359	54.600	0.000
98.500	55.009	234.037	38.943	35.979	1.000	35.958	372.367	54.600	0.000
98.600	55.009	221.875	38.944	35.969	1.000	35.844	372.385	54.600	0.000
98.700	55.009	218.483	38.945	35.965	1.000	34.835	372.463	54.600	0.000
98.800	55.009	218.145	38.945	35.965	1.000	35.184	372.423	54.600	0.000
98.900	55.009	209.667	38.944	35.964	1.000	34.757	372.452	54.600	0.000
99.000	55.009	210.089	38.945	35.953	1.000	34.068	372.496	54.600	0.000
99.100	55.009	207.330	38.947	35.921	1.000	34.508	372.472	54.600	0.000
99.200	55.009	203.895	38.949	35.891	1.000	34.295	372.488	54.600	0.000
99.300	55.009	209.185	38.949	35.879	1.000	34.621	372.458	54.600	0.000
99.400	55.009	210.129	38.949	35.874	1.000	34.858	372.443	54.600	0.000
99.500	55.009	211.920	38.948	35.873	1.000	35.008	372.433	54.600	0.000
99.600	55.009	216.338	38.948	35.872	1.000	34.827	372.445	54.600	0.000
99.700	55.009	212.790	38.948	35.869	1.000	35.177	372.414	54.600	0.000
99.800	55.009	217.249	38.947	35.846	1.000	34.982	372.418	54.600	0.000
99.900	55.009	223.414	38.946	35.810	1.000	35.810	372.343	54.600	0.000
100.000	55.009	221.565	38.946	35.791	1.000	36.574	372.301	54.600	0.000
100.100	55.009	229.152	38.946	35.785	1.000	36.214	372.316	54.600	0.000
100.200	55.009	230.092	38.946	35.784	1.000	36.141	372.328	54.600	0.000
100.300	55.009	226.869	38.946	35.783	1.000	35.892	372.333	54.600	0.000
100.400	55.009	227.723	38.946	35.780	1.000	35.641	372.358	54.600	0.000
100.500	55.009	219.975	38.945	35.762	1.000	34.986	372.402	54.600	0.000
100.600	55.009	215.181	38.943	35.730	1.000	34.905	372.410	54.600	0.000
100.700	55.009	213.227	38.942	35.711	1.000	34.793	372.423	54.600	0.000
100.800	55.009	205.326	38.942	35.703	1.000	34.338	372.446	54.600	0.000
100.900	55.009	208.913	38.942	35.700	1.000	34.726	372.417	54.600	0.000
101.000	55.009	214.258	38.942	35.700	1.000	34.758	372.422	54.600	0.000
101.100	55.009	210.385	38.941	35.699	1.000	34.938	372.400	54.600	0.000
101.200	55.009	211.807	38.941	35.689	1.000	34.553	372.423	54.600	0.000
101.300	55.009	209.034	38.939	35.663	1.000	35.273	372.369	54.600	0.000
101.400	55.009	209.807	38.937	35.639	1.000	35.020	372.405	54.600	0.000
101.500	55.009	218.861	38.936	35.629	1.000	34.964	372.414	54.600	0.000
101.600	55.009	216.866	38.936	35.627	1.000	34.934	372.424	54.600	0.000
101.700	55.009	219.646	38.936	35.625	1.000	35.694	372.363	54.600	0.000
101.800	55.009	224.128	38.935	35.624	1.000	35.808	372.323	54.600	0.000
101.900	55.009	224.964	38.934	35.616	1.000	36.324	372.271	54.600	0.000
102.000	55.018	232.693	38.931	35.593	1.000	36.376	372.302	54.600	0.000
102.100	55.025	229.639	38.928	35.566	1.000	36.319	372.283	54.600	0.000
102.200	55.016	224.738	38.928	35.555	1.000	35.850	372.322	54.600	0.000
102.300	55.020	224.730	38.927	35.551	1.000	35.235	372.361	54.600	0.000
102.400	55.009	216.095	38.926	35.551	1.000	34.797	372.390	54.505	0.000
102.500	55.009	209.549	38.927	35.550	1.000	34.847	372.403	54.500	0.000
102.600	55.009	207.827	38.927	35.548	1.000	34.476	372.436	54.500	0.000
102.700	55.009	202.093	38.923	35.533	1.000	34.579	372.430	54.500	0.000
102.800	55.009	212.007	38.918	35.505	1.000	34.896	372.402	54.500	0.000
102.900	55.009	212.936	38.915	35.490	1.000	34.245	372.410	54.500	0.000
103.000	55.009	204.467	38.914	35.485	1.000	34.740	372.371	54.500	0.000
103.100	55.009	213.787	38.914	35.483	1.000	34.691	372.389	54.500	0.000
103.200	55.009	210.184	38.914	35.482	1.000	35.033	372.382	54.500	0.000
103.300	55.009	207.932	38.913	35.481	1.000	34.804	372.384	54.500	0.000
103.400	55.009	216.789	38.910	35.467	1.000	35.012	372.371	54.500	0.000
103.500	55.009	213.245	38.904	35.441	1.000	34.929	372.385	54.500	0.000
103.600	55.009	217.656	38.900	35.426	1.000	35.796	372.310	54.500	0.000
103.700	55.010	227.659	38.900	35.421	1.000	35.872	372.290	54.500	0.000
103.800	55.009	226.789	38.900	35.419	1.000	36.445	372.249	54.500	0.000
103.900	55.009	235.202	38.900	35.418	1.000	36.520	372.242	54.500	0.000
104.000	55.009	234.842	38.900	35.418	1.000	35.804	372.311	54.500	0.000
104.100	55.009	222.264	38.897	35.412	1.000	35.677	372.303	54.500	0.000
104.200	55.009	223.127	38.889	35.389	1.000	34.759	372.367	54.500	0.000
104.300	55.009	214.105	38.883	35.367	1.000	34.391	372.385	54.500	0.000
104.400	55.009	205.822	38.881	35.359	1.000	34.828	372.377	54.500	0.000
104.500	55.009	210.189	38.881	35.356	1.000	34.281	372.422	54.500	0.000
104.600	55.009	204.463	38.881	35.356	1.000	34.714	372.385	54.500	0.000
104.700	55.009	207.491	38.880	35.355	1.000	34.771	372.374	54.500	0.000
104.800	55.009	215.280	38.878	35.350	1.000	34.839	372.383	54.500	0.000
104.900	55.009	204.118	38.873	35.332	1.000	34.389	372.404	54.500	0.000
105.000	55.009	211.860	38.867	35.310	1.000	35.085	372.331	54.500	0.000
105.100	55.009	217.128	38.865	35.301	1.000	35.050	372.324	54.500	0.000
105.200	55.009	207.226	38.864	35.297	1.000	34.945	372.343	54.500	0.000
105.300	55.009	217.421	38.863	35.296	1.000	34.940	372.345	54.500	0.000
105.400	55.009	217.809	38.863	35.295	1.000	35.340	372.315	54.500	0.000
105.500	55.009	214.674	38.862	35.293	1.000	35.630	372.305	54.500	0.000
105.600	55.009	233.379	38.858	35.283	1.000	36.555	372.242	54.500	0.000
105.700	55.009	229.866	38.850	35.260	1.000	36.150	372.249	54.500	0.000
105.800	55.009	228.106	38.846	35.248	1.000	36.269	372.242	54.500	0.000
105.900	55.009	237.130	38.844	35.244	1.000	36.293	372.246	54.500	0.000
106.000	55.009	223.783	38.844	35.241	1.000	35.209	372.312	54.500	0.000
106.100	55.009	222.975	38.843	35.241	1.000	35.199	372.313	54.500	0.000
106.200	55.009	222.587	38.843	35.240	1.000	34.860	372.347	54.500	0.000
106.300	55.008	202.834	38.840	35.231	1.000	34.566	372.354	54.500	0.000
106.400	55.009	211.052	38.831	35.210	1.000	34.712	372.346	54.500	0.000
106.500	55.009	209.303	38.828	35.197	1.000	34.859	372.340	54.500	0.000
106.600	55.009	203.392	38.828	35.192	1.000	34.899	372.355	54.500	0.000
106.700	55.010	223.140	38.828	35.191	1.000	34.572	372.370	54.500	0.000
106.800	55.010	212.517	38.827	35.191	1.000	34.573	372.369	54.500	0.000
106.900	55.010	206.441	38.828	35.190	1.000	35.070	372.336	54.500	0.000
107.000	55.009	216.472	38.828	35.190	1.000	34.785	372.364	54.500	0.000
107.100	55.009	199.114	38.827	35.189	1.000	34.827	372.318	54.500	0.000
107.200	55.009	207.842	38.827	35.189	1.000	35.068	372.290	54.500	0.000
107.300	55.009	221.347	38.827	35.189	1.000	35.027	372.317	54.500	0.000
107.400	55.009	213.173	38.827	35.187	1.000	35.714	372.252	54.500	0.000
107.500	55.009	230.213	38.823	35.178	1.000	36.392	372.214	54.500	0.000
107.600	55.009	235.827	38.816	35.154	1.000	36.504	372.200	54.500	0.000
107.700	55.009	221.792	38.811	35.140	1.000	36.290	372.224	54.500	0.000
107.800	55.009	236.541	38.810	35.136	1.000	35.627	372.263	54.500	0.000
107.900	55.009	220.326	38.810	35.134	1.000	35.091	372.313	54.500	0.000
108.000	55.009	209.978	38.809	35.133	1.000	34.632	372.336	54.500	0.000
108.100	55.009	219.812	38.810	35.132	1.000	34.253	372.353	54.500	0.000
108.200	55.009	201.136	38.807	35.123	1.000	34.634	372.319	54.500	0.000
108.300	55.009	208.360	38.798	35.095	1.000	35.111	372.293	54.500	0.000
108.400	55.009	221.544	38.791	35.070	1.000	34.928	372.301	54.500	0.000
108.500	55.009	202.127	38.790	35.063	1.000	34.850	372.327	54.500	0.000
108.600	55.009	219.575	38.788	35.059	1.000	35.132	372.312	54.402	0.000
108.700	55.009	220.112	38.788	35.058	1.000	34.571	372.323	54.400	0.000
108.800	55.008	204.734	38.788	35.058	1.000	34.868	372.304	54.400	0.000
108.900	55.009	217.593	38.786	35.053	1.000	34.905	372.314	54.400	0.000
109.000	55.009	207.211	38.780	35.029	1.000	35.050	372.285	54.400	0.000
109.100	55.009	206.180	38.771	34.994	1.000	34.776	372.297	54.400	0.000
109.200	55.009	226.306	38.769	34.980	1.000	35.657	372.226	54.400	0.000
109.300	55.009	221.826	38.767	34.975	1.000	35.744	372.225	54.400	0.000
109.400	55.010	229.169	38.767	34.973	1.000	36.440	372.176	54.400	0.000
109.500	55.009	238.768	38.766	34.973	1.000	36.154	372.182	54.400	0.000
109.600	55.009	219.459	38.766	34.969	1.000	35.860	372.230	54.400	0.000
109.700	55.009	229.758	38.759	34.948	1.000	35.869	372.228	54.400	0.000
109.800	55.009	231.795	38.748	34.908	1.000	34.952	372.300	54.400	0.000
109.900	55.009	205.850	38.745	34.893	1.000	34.671	372.315	54.400	0.000
110.000	55.009	216.619	38.744	34.887	1.000	34.849	372.299	54.400	0.000
110.100	55.009	212.986	38.745	34.884	1.000	35.224	372.269	54.400	0.000
110.200	55.009	201.644	38.744	34.883	1.000	35.048	372.272	54.400	0.000
110.300	55.009	225.054	38.744	34.882	1.000	35.229	372.246	54.400	0.000
110.400	55.009	213.062	38.740	34.871	1.000	35.046	372.269	54.400	0.000
110.500	55.009	213.727	38.730	34.835	1.000	35.052	372.289	54.400	0.000
110.600	55.009	231.191	38.726	34.812	1.000	34.595	372.309	54.400	0.000
110.700	55.009	205.172	38.725	34.803	1.000	34.577	372.335	54.400	0.000
110.800	55.009	205.520	38.724	34.799	1.000	34.564	372.318	54.400	0.000
110.900	55.009	211.536	38.724	34.798	1.000	34.813	372.285	54.400	0.000
111.000	55.009	198.408	38.724	34.798	1.000	34.673	372.291	54.400	0.000
111.100	55.009	226.277	38.722	34.788	1.000	35.798	372.233	54.400	0.000
111.200	55.009	225.596	38.711	34.747	1.000	35.784	372.210	54.400	0.000
111.300	55.009	219.986	38.706	34.717	1.000	36.074	372.168	54.400	0.000
111.400	55.010	240.925	38.704	34.705	1.000	36.442	372.139	54.400	0.000
111.500	55.013	224.169	38.702	34.702	1.000	35.674	372.207	54.400	0.000
111.600	55.031	222.566	38.703	34.700	1.000	35.568	372.217	54.400	0.000
111.700	55.013	227.284	38.702	34.700	1.000	34.956	372.263	54.400	0.000
111.800	55.027	203.025	38.702	34.696	1.000	34.690	372.301	54.400	0.000
111.900	55.009	214.052	38.696	34.667	1.000	35.182	372.252	54.400	0.000
112.000	55.009	218.860	38.689	34.623	1.000	34.772	372.278	54.400	0.000
112.100	55.009	207.946	38.686	34.604	1.000	35.144	372.244	54.400	0.000
112.200	55.009	222.511	38.684	34.598	1.000	35.378	372.217	54.400	0.000
112.300	55.009	217.325	38.685	34.595	1.000	34.986	372.247	54.400	0.000
112.400	55.009	207.724	38.684	34.594	1.000	34.786	372.266	54.400	0.000
112.500	55.009	218.902	38.683	34.591	1.000	34.287	372.310	54.400	0.000
112.600	55.009	201.830	38.677	34.568	1.000	34.697	372.298	54.400	0.000
112.700	55.010	197.344	38.669	34.515	1.000	34.690	372.308	54.400	0.000
112.800	55.009	217.455	38.666	34.494	1.000	35.289	372.253	54.400	0.000
112.900	55.009	208.761	38.665	34.487	1.000	34.971	372.246	54.400	0.000
113.000	55.010	221.846	38.666	34.483	1.000	35.923	372.183	54.400	0.000
113.100	55.009	232.721	38.665	34.482	1.000	36.227	372.156	54.400	0.000
113.200	55.009	224.202	38.665	34.481	1.000	35.921	372.173	54.400	0.000
113.300	55.010	238.329	38.663	34.471	1.000	36.297	372.139	54.400	0.000
113.400	55.010	229.966	38.655	34.421	1.000	35.572	372.180	54.400	0.000
113.500	55.009	212.199	38.648	34.385	1.000	34.951	372.251	54.400	0.000
113.600	55.009	223.271	38.648	34.371	1.000	34.873	372.259	54.400	0.000
113.700	55.009	212.931	38.648	34.367	1.000	34.531	372.267	54.400	0.000
113.800	55.009	210.176	38.648	34.365	1.000	34.626	372.271	54.400	0.000
113.900	55.009	221.836	38.648	34.364	1.000	35.233	372.235	54.400	0.000
114.000	55.009	207.902	38.647	34.356	1.000	35.457	372.201	54.400	0.000
114.100	55.009	219.450	38.640	34.305	1.000	35.316	372.216	54.400	0.000
114.200	55.010	223.078	38.635	34.267	1.000	34.732	372.245	54.400	0.000
114.300	55.009	205.380	38.634	34.253	1.000	34.490	372.268	54.400	0.000
114.400	55.009	211.504	38.633	34.247	1.000	34.090	372.303	54.400	0.000
114.500	55.009	208.377	38.633	34.246	1.000	34.420	372.276	54.400	0.000
114.600	55.009	199.892	38.633	34.246	1.000	34.659	372.261	54.400	0.000
114.700	55.011	216.147	38.633	34.243	1.000	35.220	372.219	54.400	0.000
114.800	55.009	211.720	38.628	34.210	1.000	35.167	372.214	54.302	0.000
114.900	55.010	221.456	38.622	34.153	1.000	35.746	372.165	54.300	0.000
115.000	55.009	234.803	38.620	34.130	1.000	36.130	372.152	54.300	0.000
115.100	55.009	230.794	38.620	34.122	1.000	35.864	372.167	54.300	0.000
115.200	55.009	231.575	38.620	34.120	1.000	35.651	372.166	54.300	0.000
115.300	55.010	221.569	38.618	34.117	1.000	35.249	372.180	54.300	0.000
115.400	55.009	211.882	38.618	34.116	1.000	34.771	372.210	54.300	0.000
115.500	55.009	215.498	38.616	34.089	1.000	34.823	372.227	54.300	0.000
115.600	55.010	211.830	38.610	34.026	1.000	34.919	372.230	54.300	0.000
115.700	55.010	205.453	38.609	33.996	1.000	34.923	372.226	54.300	0.000
115.800	55.009	215.858	38.608	33.987	1.000	35.240	372.196	54.300	0.000
115.900	55.009	229.195	38.608	33.983	1.000	35.508	372.182	54.300	0.000
116.000	55.009	209.905	38.607	33.983	1.000	35.060	372.213	54.300	0.000
116.100	55.009	217.585	38.608	33.982	1.000	34.894	372.215	54.300	0.000
116.200	55.009	223.253	38.606	33.970	1.000	34.223	372.258	54.300	0.000
116.300	55.009	196.318	38.603	33.910	1.000	34.373	372.265	54.300	0.000
116.400	55.010	211.900	38.601	33.869	1.000	34.221	372.272	54.300	0.000
116.500	55.009	205.669	38.600	33.855	1.000	34.997	372.201	54.300	0.000
116.600	55.009	200.885	38.599	33.851	1.000	35.037	372.200	54.300	0.000
116.700	55.009	226.500	38.599	33.848	1.000	36.010	372.139	54.300	0.000
116.800	55.009	222.518	38.600	33.847	1.000	35.706	372.144	54.300	0.000
116.900	55.010	226.613	38.599	33.841	1.000	35.900	372.117	54.300	0.000
117.000	55.009	237.135	38.596	33.783	1.000	36.042	372.120	54.300	0.000
117.100	55.009	218.328	38.595	33.736	1.000	35.627	372.162	54.300	0.000
117.200	55.009	224.897	38.595	33.721	1.000	35.153	372.177	54.300	0.000
117.300	55.009	221.017	38.594	33.712	1.000	34.774	372.206	54.300	0.000
117.400	55.009	218.937	38.594	33.710	1.000	34.917	372.204	54.300	0.000
117.500	55.009	212.784	38.594	33.711	1.000	34.770	372.197	54.300	0.000
117.600	55.009	215.235	38.596	33.709	1.000	35.594	372.133	54.300	0.000
117.700	55.010	226.033	38.595	33.676	1.000	35.893	372.110	54.300	0.000
117.800	55.009	216.615	38.594	33.612	1.000	35.594	372.138	54.300	0.000
117.900	55.010	222.992	38.593	33.583	1.000	35.284	372.173	54.300	0.000
118.000	55.009	222.793	38.594	33.573	1.000	34.649	372.206	54.300	0.000
118.100	55.009	199.669	38.594	33.570	1.000	34.388	372.230	54.300	0.000
118.200	55.009	213.008	38.592	33.569	1.000	34.098	372.247	54.300	0.000
118.300	55.009	208.744	38.593	33.568	1.000	34.796	372.206	54.300	0.000
118.400	55.009	197.368	38.593	33.538	1.000	35.195	372.176	54.300	0.000
118.500	55.009	220.817	38.590	33.470	1.000	35.360	372.149	54.300	0.000
118.600	55.009	216.742	38.590	33.437	1.000	35.354	372.145	54.300	0.000
118.700	55.009	219.944	38.591	33.426	1.000	35.700	372.121	54.300	0.000
118.800	55.008	232.789	38.590	33.423	1.000	35.642	372.118	54.300	0.000
118.900	55.009	214.802	38.590	33.421	1.000	35.769	372.128	54.300	0.000
119.000	55.009	222.944	38.590	33.421	1.000	35.364	372.168	54.300	0.000
119.100	55.009	225.037	38.591	33.412	1.000	35.051	372.168	54.300	0.000
119.200	55.009	206.552	38.591	33.348	1.000	34.773	372.190	54.300	0.000
119.300	55.010	220.133	38.593	33.302	1.000	34.653	372.184	54.300	0.000
119.400	55.009	216.946	38.593	33.285	1.000	35.099	372.176	54.300	0.000
119.500	55.010	204.678	38.593	33.278	1.000	35.687	372.126	54.300	0.000
119.600	55.009	227.622	38.592	33.276	1.000	35.061	372.157	54.300	0.000
119.700	55.009	217.093	38.593	33.276	1.000	35.203	372.140	54.300	0.000
119.800	55.009	212.050	38.593	33.272	1.000	35.261	372.160	54.300	0.000
119.900	55.009	226.776	38.596	33.221	1.000	34.644	372.189	54.300	0.000
120.000	55.009	207.340	38.597	33.178	1.000	34.323	372.224	54.300	0.000
120.100	55.009	211.381	38.598	33.159	1.000	34.568	372.203	54.300	0.000
120.200	55.009	211.627	38.599	33.153	1.000	34.673	372.169	54.300	0.000
120.300	55.009	196.981	38.599	33.150	1.000	35.237	372.146	54.300	0.000
120.400	55.009	223.928	38.600	33.149	1.000	35.499	372.128	54.300	0.000
120.500	55.009	225.261	38.599	33.149	1.000	35.635	372.119	54.300	0.000
120.600	55.009	212.613	38.602	33.115	1.000	35.665	372.101	54.300	0.000
120.700	55.009	236.637	38.603	33.058	1.000	35.458	372.115	54.300	0.000
120.800	55.009	243.627	38.605	33.029	1.000	35.623	372.097	54.300	0.000
120.900	55.009	216.578	38.605	33.019	1.000	35.501	372.089	54.300	0.000
121.000	55.010	213.923	38.605	33.016	1.000	35.497	372.115	54.203	0.000
121.100	55.010	224.601	38.605	33.017	1.000	35.164	372.146	54.200	0.000
121.200	55.010	216.463	38.607	33.016	1.000	35.254	372.125	54.200	0.000
121.300	55.009	219.625	38.608	32.990	1.000	35.324	372.122	54.200	0.000
121.400	55.009	221.061	38.609	32.926	1.000	35.177	372.121	54.200	0.000
121.500	55.009	210.143	38.613	32.894	1.000	35.433	372.112	54.200	0.000
121.600	55.009	225.319	38.614	32.882	1.000	35.282	372.108	54.200	0.000
121.700	55.009	216.388	38.612	32.879	1.000	34.829	372.154	54.200	0.000
121.800	55.010	207.111	38.611	32.877	1.000	34.125	372.196	54.200	0.000
121.900	55.009	209.756	38.613	32.878	1.000	34.230	372.201	54.200	0.000
122.000	55.009	199.971	38.613	32.870	1.000	34.489	372.181	54.200	0.000
122.100	55.009	207.012	38.617	32.811	1.000	34.891	372.155	54.200	0.000
122.200	55.009	216.594	38.618	32.765	1.000	35.185	372.115	54.200	0.000
122.300	55.009	211.458	38.619	32.747	1.000	35.509	372.095	54.200	0.000
122.400	55.009	223.104	38.620	32.740	1.000	35.708	372.081	54.200	0.000
122.500	55.009	226.810	38.620	32.737	1.000	35.317	372.120	54.200	0.000
122.600	55.009	218.344	38.621	32.736	1.000	35.818	372.079	54.200	0.000
122.700	55.009	227.252	38.622	32.731	1.000	35.201	372.113	54.200	0.000
122.800	55.010	217.353	38.626	32.680	1.000	35.326	372.104	54.200	0.000
122.900	55.010	212.863	38.630	32.631	1.000	35.384	372.085	54.200	0.000
123.000	55.009	224.604	38.632	32.610	1.000	35.539	372.071	54.200	0.000
123.100	55.009	219.693	38.633	32.603	1.000	35.777	372.069	54.200	0.000
123.200	55.010	225.188	38.634	32.601	1.000	35.540	372.076	54.200	0.000
123.300	55.010	229.662	38.635	32.599	1.000	35.772	372.054	54.200	0.000
123.400	55.027	213.364	38.633	32.598	1.000	35.687	372.048	54.200	0.000
123.500	55.012	224.556	38.635	32.570	1.000	35.056	372.120	54.200	0.000
123.600	55.030	222.023	38.639	32.508	1.000	34.864	372.148	54.200	0.000
123.700	55.012	203.142	38.640	32.476	1.000	34.203	372.196	54.200	0.000
123.800	55.009	203.024	38.641	32.464	1.000	34.506	372.167	54.200	0.000
123.900	55.010	196.699	38.641	32.460	1.000	34.420	372.155	54.200	0.000
124.000	55.009	216.443	38.641	32.458	1.000	35.144	372.111	54.200	0.000
124.100	55.009	210.887	38.641	32.458	1.000	35.311	372.088	54.200	0.000
124.200	55.009	209.062	38.644	32.435	1.000	35.540	372.067	54.200	0.000
124.300	55.009	229.297	38.649	32.375	1.000	35.559	372.062	54.200	0.000
124.400	55.009	215.534	38.652	32.338	1.000	35.458	372.055	54.200	0.000
124.500	55.009	220.784	38.652	32.323	1.000	35.312	372.083	54.200	0.000
124.600	55.010	233.757	38.653	32.318	1.000	35.708	372.060	54.200	0.000
124.700	55.009	213.850	38.652	32.316	1.000	35.312	372.095	54.200	0.000
124.800	55.009	220.036	38.651	32.317	1.000	35.347	372.070	54.200	0.000
124.900	55.009	222.795	38.654	32.310	1.000	35.143	372.090	54.200	0.000
125.000	55.009	207.628	38.656	32.255	1.000	35.144	372.077	54.200	0.000
125.100	55.009	227.611	38.659	32.203	1.000	35.564	372.036	54.200	0.000
125.200	55.025	222.603	38.661	32.179	1.000	35.207	372.071	54.200	0.000
125.300	55.033	209.098	38.660	32.170	1.000	35.228	372.077	54.200	0.000
125.400	55.015	220.986	38.661	32.168	1.000	34.842	372.106	54.200	0.000
125.500	55.009	206.763	38.661	32.168	1.000	34.047	372.167	54.200	0.000
125.600	55.009	194.749	38.661	32.163	1.000	34.364	372.162	54.200	0.000
125.700	55.009	216.754	38.665	32.112	1.000	34.071	372.175	54.200	0.000
125.800	55.009	211.863	38.668	32.059	1.000	34.623	372.133	54.200	0.000
125.900	55.009	196.339	38.670	32.033	1.000	35.050	372.090	54.200	0.000
126.000	55.010	218.508	38.670	32.025	1.000	35.915	372.027	54.200	0.000
126.100	55.009	224.980	38.672	32.022	1.000	35.359	372.075	54.200	0.000
126.200	55.009	218.850	38.672	32.021	1.000	35.567	372.038	54.200	0.000
126.300	55.009	232.333	38.671	32.020	1.000	35.366	372.055	54.200	0.000
126.400	55.010	219.094	38.674	31.993	1.000	34.955	372.083	54.200	0.000
126.500	55.009	212.886	38.680	31.934	1.000	35.635	372.048	54.200	0.000
126.600	55.009	224.563	38.683	31.899	1.000	35.474	372.051	54.200	0.000
126.700	55.010	213.304	38.684	31.884	1.000	35.102	372.082	54.200	0.000
126.800	55.010	219.493	38.684	31.880	1.000	35.231	372.071	54.200	0.000
126.900	55.010	222.813	38.684	31.878	1.000	35.260	372.064	54.200	0.000
127.000	55.010	213.624	38.684	31.877	1.000	35.817	372.033	54.200	0.000
127.100	55.009	230.730	38.687	31.858	1.000	35.274	372.042	54.103	0.000
127.200	55.009	220.160	38.694	31.805	1.000	35.379	372.032	54.100	0.000
127.300	55.009	209.754	38.698	31.767	1.000	34.859	372.070	54.100	0.000
127.400	55.009	222.671	38.699	31.756	1.000	34.474	372.098	54.100	0.000
127.500	55.010	200.921	38.700	31.752	1.000	34.307	372.141	54.100	0.000
127.600	55.009	207.392	38.699	31.750	1.000	34.374	372.137	54.100	0.000
127.700	55.009	218.132	38.699	31.749	1.000	34.826	372.087	54.100	0.000
127.800	55.009	203.549	38.703	31.735	1.000	35.349	372.050	54.100	0.000
127.900	55.009	223.820	38.710	31.673	1.000	35.681	372.038	54.100	0.000
128.000	55.009	222.528	38.715	31.635	1.000	35.156	372.049	54.100	0.000
128.100	55.009	217.230	38.716	31.622	1.000	35.436	372.023	54.100	0.000
128.200	55.009	231.069	38.717	31.617	1.000	35.210	372.045	54.100	0.000
128.300	55.009	215.950	38.717	31.616	1.000	35.054	372.055	54.100	0.000
128.400	55.009	218.126	38.716	31.614	1.000	35.193	372.050	54.100	0.000
128.500	55.009	224.568	38.720	31.588	1.000	35.416	372.031	54.100	0.000
128.600	55.009	212.691	38.726	31.536	1.000	35.601	372.014	54.100	0.000
128.700	55.009	226.346	38.730	31.503	1.000	35.468	372.022	54.100	0.000
128.800	55.009	225.049	38.732	31.493	1.000	35.268	372.041	54.100	0.000
128.900	55.010	218.823	38.732	31.490	1.000	35.163	372.048	54.100	0.000
129.000	55.010	225.274	38.731	31.488	1.000	35.149	372.050	54.100	0.000
129.100	55.009	208.057	38.732	31.486	1.000	34.698	372.075	54.100	0.000
129.200	55.009	205.504	38.735	31.469	1.000	34.579	372.070	54.100	0.000
129.300	55.009	211.693	38.741	31.425	1.000	34.529	372.066	54.100	0.000
129.400	55.009	198.093	38.745	31.383	1.000	33.828	372.136	54.100	0.000
129.500	55.009	206.304	38.747	31.366	1.000	34.390	372.118	54.100	0.000
129.600	55.009	215.804	38.748	31.360	1.000	34.750	372.069	54.100	0.000
129.700	55.010	205.454	38.748	31.358	1.000	35.143	372.044	54.100	0.000
129.800	55.010	220.195	38.748	31.357	1.000	35.104	372.046	54.100	0.000
129.900	55.010	220.419	38.750	31.344	1.000	35.180	372.030	54.100	0.000
130.000	55.009	214.814	38.755	31.303	1.000	35.045	372.050	54.100	0.000
130.100	55.009	226.670	38.760	31.259	1.000	35.169	372.029	54.100	0.000
130.200	55.009	219.313	38.762	31.241	1.000	35.093	372.030	54.100	0.000
130.300	55.009	212.711	38.763	31.234	1.000	35.819	371.959	54.100	0.000
130.400	55.009	217.953	38.763	31.232	1.000	35.754	371.961	54.100	0.000
130.500	55.009	218.605	38.762	31.231	1.000	35.914	371.952	54.100	0.000
130.600	55.009	229.874	38.763	31.227	1.000	35.535	372.001	54.100	0.000
130.700	55.009	229.229	38.766	31.197	1.000	35.599	371.998	54.100	0.000
130.800	55.009	214.283	38.770	31.148	1.000	35.116	372.043	54.100	0.000
130.900	55.009	220.572	38.771	31.121	1.000	35.084	372.026	54.100	0.000
131.000	55.009	215.197	38.772	31.112	1.000	35.065	372.039	54.100	0.000
131.100	55.009	201.999	38.773	31.108	1.000	34.292	372.076	54.100	0.000
131.200	55.009	210.047	38.773	31.107	1.000	34.021	372.083	54.100	0.000
131.300	55.009	203.801	38.774	31.104	1.000	34.316	372.045	54.100	0.000
131.400	55.009	206.107	38.777	31.076	1.000	34.503	372.055	54.100	0.000
131.500	55.009	220.565	38.782	31.024	1.000	35.269	372.008	54.100	0.000
131.600	55.009	213.124	38.785	30.991	1.000	35.078	372.040	54.100	0.000
131.700	55.009	220.253	38.785	30.980	1.000	35.252	371.998	54.100	0.000
131.800	55.009	226.142	38.786	30.976	1.000	35.348	372.004	54.100	0.000
131.900	55.009	216.146	38.786	30.974	1.000	35.580	371.988	54.100	0.000
132.000	55.010	226.555	38.786	30.973	1.000	35.613	371.965	54.100	0.000
132.100	55.009	227.994	38.787	30.962	1.000	36.006	371.943	54.100	0.000
132.200	55.009	217.246	38.792	30.923	1.000	35.914	371.942	54.100	0.000
132.300	55.009	229.743	38.797	30.875	1.000	35.851	371.936	54.100	0.000
132.400	55.009	225.838	38.798	30.859	1.000	35.547	371.945	54.100	0.000
132.500	55.009	221.583	38.798	30.853	1.000	35.608	371.974	54.100	0.000
132.600	55.010	229.196	38.797	30.850	1.000	35.714	371.972	54.100	0.000
132.700	55.010	219.612	38.797	30.849	1.000	35.111	371.998	54.100	0.000
132.800	55.009	217.716	38.799	30.838	1.000	34.909	372.009	54.100	0.000
132.900	55.009	216.487	38.802	30.802	1.000	34.924	372.017	54.100	0.000
133.000	55.009	204.601	38.805	30.758	1.000	34.456	372.067	54.100	0.000
133.100	55.009	206.568	38.806	30.740	1.000	34.246	372.066	54.100	0.000
133.200	55.009	205.837	38.807	30.733	1.000	34.334	372.047	54.100	0.000
133.300	55.009	202.727	38.806	30.731	1.000	34.336	372.035	54.001	0.000
133.400	55.009	214.311	38.805	30.731	1.000	34.721	372.022	54.000	0.000
133.500	55.009	213.859	38.806	30.728	1.000	35.050	371.986	54.000	0.000
133.600	55.009	214.960	38.807	30.703	1.000	35.041	371.989	54.000	0.000
133.700	55.009	221.646	38.808	30.655	1.000	35.401	371.985	54.000	0.000
133.800	55.009	216.605	38.809	30.628	1.000	35.423	371.977	54.000	0.000
133.900	55.009	224.430	38.809	30.618	1.000	35.599	371.963	54.000	0.000
134.000	55.009	228.845	38.810	30.615	1.000	35.652	371.964	54.000	0.000
134.100	55.009	219.825	38.809	30.614	1.000	35.903	371.933	54.000	0.000
134.200	55.010	225.149	38.809	30.611	1.000	36.107	371.906	54.000	0.000
134.300	55.009	228.734	38.810	30.591	1.000	35.623	371.931	54.000	0.000
134.400	55.009	224.080	38.811	30.549	1.000	35.871	371.923	54.000	0.000
134.500	55.009	228.017	38.812	30.521	1.000	35.043	371.972	54.000	0.000
134.600	55.017	218.820	38.812	30.511	1.000	35.439	371.949	54.000	0.000
134.700	55.021	214.780	38.812	30.508	1.000	35.025	371.982	54.000	0.000
134.800	55.009	220.274	38.813	30.508	1.000	34.517	372.030	54.000	0.000
134.900	55.009	209.559	38.813	30.506	1.000	35.082	371.996	54.000	0.000
135.000	55.009	212.542	38.812	30.497	1.000	34.418	372.039	54.000	0.000
135.100	55.009	212.778	38.812	30.468	1.000	34.403	372.028	54.000	0.000
135.200	55.009	206.622	38.814	30.435	1.000	34.544	372.016	54.000	0.000
135.300	55.009	214.315	38.815	30.423	1.000	34.858	372.003	54.000	0.000
135.400	55.009	211.430	38.815	30.418	1.000	35.162	371.962	54.000	0.000
135.500	55.009	211.843	38.814	30.417	1.000	35.194	371.954	54.000	0.000
135.600	55.009	220.278	38.814	30.416	1.000	34.764	372.008	54.000	0.000
135.700	55.009	216.689	38.816	30.411	1.000	35.576	371.943	54.000	0.000
135.800	55.009	221.705	38.816	30.389	1.000	35.390	371.948	54.000	0.000
135.900	55.009	227.392	38.817	30.358	1.000	35.763	371.905	54.000	0.000
136.000	55.009	220.946	38.817	30.344	1.000	35.975	371.916	54.000	0.000
136.100	55.018	227.279	38.817	30.340	1.000	35.675	371.912	54.000	0.000
136.200	55.024	228.357	38.817	30.338	1.000	35.520	371.917	54.000	0.000
136.300	55.016	218.840	38.817	30.337	1.000	35.324	371.933	54.000	0.000
136.400	55.030	223.579	38.817	30.336	1.000	35.019	371.967	54.000	0.000
136.500	55.025	218.864	38.818	30.325	1.000	35.253	371.974	54.000	0.000
136.600	55.009	217.028	38.820	30.300	1.000	34.906	371.967	54.000	0.000
136.700	55.009	217.516	38.821	30.284	1.000	34.924	371.972	54.000	0.000
136.800	55.009	209.725	38.821	30.279	1.000	34.744	371.993	54.000	0.000
136.900	55.009	213.812	38.821	30.277	1.000	34.631	371.995	54.000	0.000
137.000	55.010	215.373	38.821	30.276	1.000	34.373	372.014	54.000	0.000
137.100	55.009	206.228	38.822	30.276	1.000	35.011	371.959	54.000	0.000
137.200	55.010	212.675	38.822	30.267	1.000	34.796	371.962	54.000	0.000
137.300	55.009	214.288	38.821	30.242	1.000	34.932	371.954	54.000	0.000
137.400	55.010	213.535	38.821	30.225	1.000	35.550	371.935	54.000	0.000
137.500	55.009	223.821	38.822	30.219	1.000	35.207	371.934	54.000	0.000
137.600	55.009	219.270	38.821	30.216	1.000	35.243	371.916	54.000	0.000
137.700	55.010	220.051	38.821	30.216	1.000	35.360	371.910	54.000	0.000
137.800	55.017	230.705	38.821	30.217	1.000	36.018	371.884	54.000	0.000
137.900	55.027	225.887	38.820	30.211	1.000	36.227	371.867	54.000	0.000
138.000	55.009	228.954	38.818	30.194	1.000	35.843	371.889	54.000	0.000
138.100	55.015	230.585	38.817	30.173	1.000	35.444	371.904	54.000	0.000
138.200	55.031	218.014	38.817	30.165	1.000	35.240	371.902	54.000	0.000
138.300	55.026	224.122	38.817	30.162	1.000	35.024	371.935	54.000	0.000
138.400	55.009	219.280	38.817	30.161	1.000	34.933	371.937	54.000	0.000
138.500	55.015	208.253	38.817	30.161	1.000	34.631	371.977	54.000	0.000
138.600	55.023	215.376	38.816	30.157	1.000	34.724	371.952	54.000	0.000
138.700	55.009	208.903	38.815	30.142	1.000	34.566	371.979	54.000	0.000
138.800	55.009	203.054	38.811	30.118	1.000	33.994	372.002	54.000	0.000
138.900	55.010	212.200	38.809	30.108	1.000	34.042	372.017	54.000	0.000
139.000	55.009	202.398	38.808	30.103	1.000	34.090	372.014	54.000	0.000
139.100	55.009	206.659	38.808	30.102	1.000	34.721	371.954	54.000	0.000
139.200	55.009	215.926	38.809	30.101	1.000	34.771	371.949	54.000	0.000
139.300	55.009	208.178	38.808	30.100	1.000	35.173	371.913	54.000	0.000
139.400	55.009	224.039	38.805	30.091	1.000	35.272	371.926	54.000	0.000
139.500	55.011	228.320	38.799	30.069	1.000	35.581	371.884	53.901	0.000
139.600	55.017	220.473	38.795	30.054	1.000	35.798	371.859	53.900	0.000
139.700	55.035	235.778	38.793	30.048	1.000	36.572	371.796	53.900	0.000
139.800	55.037	229.712	38.793	30.047	1.000	36.230	371.817	53.900	0.000
139.900	55.041	225.199	38.794	30.046	1.000	35.685	371.863	53.900	0.000
140.000	55.052	232.754	38.792	30.045	1.000	35.322	371.900	53.900	0.000
140.100	55.027	216.118	38.790	30.038	1.000	35.342	371.894	53.900	0.000
140.200	55.015	217.845	38.781	30.018	1.000	34.677	371.947	53.900	0.000
140.300	55.031	221.876	38.775	30.002	1.000	34.783	371.955	53.900	0.000
140.400	55.028	207.938	38.774	29.996	1.000	34.738	371.962	53.900	0.000
140.500	55.010	215.449	38.773	29.995	1.000	34.640	371.948	53.900	0.000
140.600	55.009	211.336	38.773	29.994	1.000	34.171	371.989	53.900	0.000
140.700	55.009	197.734	38.774	29.994	1.000	34.107	371.982	53.900	0.000
140.800	55.009	213.383	38.771	29.991	1.000	34.175	371.990	53.900	0.000
140.900	55.009	207.300	38.765	29.979	1.000	33.948	371.996	53.900	0.000
141.000	55.009	207.947	38.756	29.961	1.000	34.645	371.957	53.900	0.000
141.100	55.009	223.701	38.753	29.953	1.000	34.967	371.923	53.900	0.000
141.200	55.010	208.692	38.751	29.950	1.000	35.031	371.919	53.900	0.000
141.300	55.009	216.137	38.751	29.949	1.000	35.326	371.884	53.900	0.000
141.400	55.015	234.062	38.751	29.949	1.000	35.291	371.872	53.900	0.000
141.500	55.029	219.497	38.750	29.947	1.000	35.985	371.841	53.900	0.000
141.600	55.014	231.239	38.744	29.939	1.000	36.289	371.815	53.900	0.000
141.700	55.030	234.818	38.734	29.925	1.000	35.839	371.839	53.900	0.000
141.800	55.035	215.648	38.732	29.919	1.000	35.705	371.854	53.900	0.000
141.900	55.037	230.163	38.731	29.917	1.000	35.657	371.878	53.900	0.000
142.000	55.039	222.849	38.730	29.915	1.000	34.863	371.908	53.900	0.000
142.100	55.053	207.428	38.728	29.915	1.000	34.687	371.919	53.900	0.000
142.200	55.031	221.424	38.728	29.915	1.000	34.969	371.904	53.900	0.000
142.300	55.013	208.063	38.724	29.912	1.000	35.057	371.881	53.900	0.000
142.400	55.024	207.704	38.713	29.902	1.000	34.825	371.898	53.900	0.000
142.500	55.009	220.123	38.707	29.895	1.000	34.223	371.966	53.900	0.000
142.600	55.010	198.870	38.705	29.893	1.000	34.210	371.963	53.900	0.000
142.700	55.009	206.035	38.705	29.891	1.000	34.011	371.981	53.900	0.000
142.800	55.009	208.928	38.706	29.891	1.000	33.967	371.962	53.900	0.000
142.900	55.009	191.710	38.706	29.892	1.000	34.425	371.934	53.900	0.000
143.000	55.010	213.938	38.703	29.890	1.000	34.871	371.892	53.900	0.000
143.100	55.009	217.635	38.693	29.887	1.000	35.135	371.884	53.900	0.000
143.200	55.010	211.747	38.687	29.881	1.000	35.422	371.857	53.900	0.000
143.300	55.009	236.031	38.686	29.879	1.000	36.027	371.819	53.900	0.000
143.400	55.009	229.410	38.685	29.879	1.000	35.662	371.818	53.900	0.000
143.500	55.013	225.551	38.684	29.880	1.000	36.250	371.788	53.900	0.000
143.600	55.031	238.036	38.684	29.879	1.000	35.923	371.823	53.900	0.000
143.700	55.012	219.692	38.683	29.878	1.000	35.579	371.835	53.900	0.000
143.800	55.026	221.914	38.678	29.880	1.000	35.504	371.851	53.900	0.000
143.900	55.013	229.555	38.671	29.881	1.000	34.728	371.919	53.900	0.000
144.000	55.031	208.781	38.668	29.880	1.000	34.721	371.892	53.900	0.000
144.100	55.009	223.618	38.668	29.881	1.000	35.058	371.870	53.900	0.000
144.200	55.013	221.281	38.668	29.881	1.000	34.681	371.897	53.900	0.000
144.300	55.030	201.327	38.668	29.881	1.000	34.332	371.916	53.900	0.000
144.400	55.009	217.763	38.667	29.882	1.000	34.200	371.936	53.900	0.000
144.500	55.009	202.130	38.662	29.885	1.000	33.913	371.978	53.900	0.000
144.600	55.010	196.374	38.656	29.892	1.000	33.673	371.989	53.900	0.000
144.700	55.009	215.386	38.654	29.895	1.000	34.654	371.935	53.900	0.000
144.800	55.009	199.590	38.655	29.896	1.000	34.715	371.903	53.900	0.000
144.900	55.009	212.960	38.654	29.896	1.000	35.269	371.854	53.900	0.000
145.000	55.009	230.078	38.654	29.895	1.000	35.269	371.849	53.900	0.000
145.100	55.009	209.736	38.654	29.896	1.000	35.644	371.810	53.900	0.000
145.200	55.009	230.783	38.653	29.898	1.000	36.158	371.772	53.900	0.000
145.300	55.012	241.720	38.650	29.907	1.000	35.819	371.799	53.900	0.000
145.400	55.032	222.018	38.648	29.912	1.000	36.029	371.796	53.900	0.000
145.500	55.012	236.923	38.648	29.915	1.000	35.763	371.812	53.900	0.000
145.600	55.031	223.353	38.649	29.917	1.000	35.429	371.850	53.900	0.000
145.700	55.033	214.229	38.649	29.916	1.000	34.912	371.877	53.803	0.000
145.800	55.011	231.327	38.648	29.918	1.000	35.093	371.858	53.800	0.000
145.900	55.027	212.726	38.648	29.919	1.000	34.751	371.869	53.800	0.000
146.000	55.009	205.900	38.645	29.926	1.000	34.491	371.885	53.800	0.000
146.100	55.009	225.013	38.642	29.932	1.000	35.050	371.866	53.800	0.000
146.200	55.009	202.151	38.642	29.935	1.000	34.126	371.897	53.800	0.000
146.300	55.009	211.719	38.643	29.936	1.000	34.129	371.929	53.800	0.000
146.400	55.009	206.922	38.642	29.936	1.000	33.483	371.989	53.800	0.000
146.500	55.010	188.080	38.641	29.936	1.000	33.675	371.977	53.800	0.000
146.600	55.009	209.606	38.642	29.937	1.000	33.946	371.951	53.800	0.000
146.700	55.009	210.747	38.640	29.940	1.000	34.885	371.879	53.800	0.000
146.800	55.010	205.015	38.637	29.945	1.000	35.199	371.841	53.800	0.000
146.900	55.009	234.498	38.637	29.949	1.000	36.283	371.756	53.800	0.000
147.000	55.010	225.390	38.638	29.949	1.000	36.317	371.738	53.800	0.000
147.100	55.032	232.595	38.636	29.951	1.000	36.077	371.746	53.800	0.000
147.200	55.010	248.104	38.637	29.951	1.000	35.877	371.757	53.800	0.000
147.300	55.027	218.446	38.636	29.950	1.000	35.900	371.764	53.800	0.000
147.400	55.009	230.799	38.635	29.953	1.000	35.504	371.804	53.800	0.000
147.500	55.009	227.998	38.631	29.957	1.000	35.118	371.860	53.800	0.000
147.600	55.011	209.107	38.630	29.962	1.000	35.085	371.843	53.800	0.000
147.700	55.030	227.247	38.630	29.963	1.000	34.935	371.855	53.800	0.000
147.800	55.033	221.885	38.630	29.964	1.000	34.819	371.868	53.800	0.000
147.900	55.009	215.414	38.631	29.962	1.000	34.650	371.861	53.800	0.000
148.000	55.011	227.706	38.632	29.964	1.000	34.584	371.882	53.800	0.000
148.100	55.028	205.784	38.629	29.964	1.000	34.304	371.872	53.800	0.000
148.200	55.010	203.047	38.628	29.968	1.000	33.575	371.955	53.800	0.000
148.300	55.009	218.662	38.626	29.971	1.000	33.557	371.952	53.800	0.000
148.400	55.009	211.619	38.627	29.972	1.000	33.768	371.930	53.800	0.000
148.500	55.009	196.808	38.628	29.974	1.000	34.559	371.884	53.800	0.000
148.600	55.009	217.324	38.626	29.974	1.000	34.668	371.869	53.800	0.000
148.700	55.009	214.361	38.627	29.974	1.000	35.337	371.799	53.800	0.000
148.800	55.009	213.327	38.627	29.974	1.000	35.963	371.765	53.800	0.000
148.900	55.009	241.533	38.625	29.977	1.000	35.979	371.771	53.800	0.000
149.000	55.011	222.067	38.623	29.982	1.000	35.946	371.756	53.800	0.000
149.100	55.029	225.850	38.622	29.983	1.000	35.762	371.752	53.800	0.000
149.200	55.034	245.773	38.622	29.983	1.000	35.601	371.748	53.800	0.000
149.300	55.037	211.456	38.623	29.986	1.000	35.412	371.775	53.800	0.000
149.400	55.034	220.585	38.622	29.984	1.000	35.232	371.799	53.800	0.000
149.500	55.059	229.947	38.622	29.986	1.000	34.780	371.827	53.800	0.000
149.600	55.033	200.941	38.622	29.988	1.000	34.855	371.833	53.800	0.000
149.700	55.010	222.600	38.621	29.993	1.000	34.529	371.861	53.800	0.000
149.800	55.029	219.187	38.621	29.996	1.000	34.444	371.859	53.800	0.000
149.900	55.034	203.397	38.622	29.997	1.000	34.335	371.873	53.800	0.000
150.000	55.010	210.062	38.620	29.996	1.000	33.860	371.905	53.800	0.000
150.100	55.010	200.374	38.621	29.997	1.000	33.633	371.911	53.800	0.000
150.200	55.009	202.744	38.621	29.997	1.000	33.450	371.935	53.800	0.000
150.300	55.009	198.387	38.621	29.999	1.000	34.095	371.890	53.800	0.000
150.400	55.010	200.422	38.621	30.005	1.000	34.367	371.860	53.800	0.000
150.500	55.010	215.504	38.621	30.008	1.000	35.723	371.771	53.800	0.000
150.600	55.009	214.907	38.621	30.009	1.000	35.959	371.753	53.800	0.000
150.700	55.009	227.497	38.620	30.011	1.000	36.061	371.724	53.800	0.000
150.800	55.010	236.101	38.620	30.009	1.000	35.793	371.745	53.800	0.000
150.900	55.028	226.758	38.621	30.009	1.000	35.603	371.750	53.800	0.000
151.000	55.033	234.193	38.622	30.011	1.000	35.713	371.765	53.800	0.000
151.100	55.010	228.511	38.621	30.017	1.000	35.346	371.768	53.800	0.000
151.200	55.030	219.241	38.621	30.024	1.000	35.087	371.765	53.800	0.000
151.300	55.033	222.644	38.621	30.026	1.000	35.361	371.745	53.800	0.000
151.400	55.010	218.905	38.620	30.027	1.000	34.972	371.815	53.800	0.000
151.500	55.033	219.755	38.622	30.026	1.000	34.827	371.812	53.800	0.000
151.600	55.058	225.843	38.620	30.027	1.000	34.868	371.825	53.800	0.000
151.700	55.036	212.523	38.621	30.027	1.000	34.278	371.852	53.800	0.000
151.800	55.010	211.331	38.624	30.035	1.000	34.061	371.880	53.800	0.000
151.900	55.009	206.623	38.627	30.038	1.000	33.695	371.907	53.701	0.000
152.000	55.009	196.053	38.627	30.041	1.000	33.487	371.927	53.700	0.000
152.100	55.009	202.450	38.628	30.042	1.000	33.872	371.884	53.700	0.000
152.200	55.009	198.716	38.627	30.041	1.000	33.951	371.875	53.700	0.000
152.300	55.009	200.858	38.627	30.043	1.000	34.829	371.800	53.700	0.000
152.400	55.009	217.660	38.627	30.042	1.000	35.658	371.726	53.700	0.000
152.500	55.008	219.053	38.628	30.047	1.000	36.223	371.694	53.700	0.000
152.600	55.009	234.808	38.630	30.052	1.000	36.354	371.687	53.700	0.000
152.700	55.032	239.999	38.632	30.056	1.000	36.351	371.692	53.700	0.000
152.800	55.011	228.333	38.633	30.057	1.000	36.217	371.708	53.700	0.000
152.900	55.027	237.613	38.633	30.058	1.000	35.250	371.772	53.700	0.000
153.000	55.033	226.515	38.633	30.057	1.000	35.287	371.767	53.700	0.000
153.100	55.035	217.779	38.634	30.057	1.000	35.196	371.758	53.700	0.000
153.200	55.011	223.608	38.635	30.060	1.000	34.980	371.771	53.700	0.000
153.300	55.028	212.192	38.638	30.066	1.000	35.030	371.756	53.700	0.000
153.400	55.034	196.817	38.639	30.069	1.000	34.839	371.792	53.700	0.000
153.500	55.011	204.934	38.639	30.070	1.000	34.340	371.844	53.700	0.000
153.600	55.009	221.715	38.641	30.069	1.000	34.348	371.832	53.700	0.000
153.700	55.009	204.730	38.640	30.071	1.000	33.701	371.891	53.700	0.000
153.800	55.010	199.580	38.640	30.070	1.000	33.865	371.874	53.700	0.000
153.900	55.010	206.461	38.641	30.071	1.000	33.635	371.883	53.700	0.000
154.000	55.009	187.765	38.643	30.072	1.000	33.452	371.901	53.700	0.000
154.100	55.009	202.919	38.646	30.075	1.000	34.574	371.812	53.700	0.000
154.200	55.010	220.530	38.648	30.076	1.000	35.612	371.724	53.700	0.000
154.300	55.009	214.223	38.648	30.077	1.000	35.909	371.697	53.700	0.000
154.400	55.009	233.684	38.648	30.076	1.000	36.640	371.635	53.700	0.000
154.500	55.010	236.477	38.648	30.077	1.000	36.240	371.665	53.700	0.000
154.600	55.010	233.536	38.649	30.076	1.000	36.299	371.691	53.700	0.000
154.700	55.009	246.241	38.651	30.078	1.000	35.814	371.695	53.700	0.000
154.800	55.009	227.392	38.653	30.080	1.000	35.354	371.742	53.700	0.000
154.900	55.036	221.324	38.654	30.079	1.000	35.821	371.710	53.700	0.000
155.000	55.035	231.648	38.654	30.081	1.000	35.281	371.757	53.700	0.000
155.100	55.030	215.136	38.654	30.079	1.000	34.936	371.760	53.700	0.000
155.200	55.033	219.604	38.654	30.080	1.000	34.943	371.752	53.700	0.000
155.300	55.012	223.016	38.654	30.081	1.000	34.737	371.748	53.700	0.000
155.400	55.026	209.906	38.654	30.080	1.000	34.299	371.787	53.700	0.000
155.500	55.012	215.983	38.655	30.081	1.000	34.030	371.833	53.700	0.000
155.600	55.009	204.127	38.656	30.080	1.000	34.166	371.816	53.700	0.000
155.700	55.009	200.543	38.656	30.080	1.000	33.785	371.839	53.700	0.000
155.800	55.009	208.572	38.656	30.081	1.000	33.837	371.857	53.700	0.000
155.900	55.010	193.091	38.655	30.080	1.000	33.958	371.843	53.700	0.000
156.000	55.009	201.840	38.656	30.081	1.000	34.683	371.792	53.700	0.000
156.100	55.009	217.523	38.658	30.080	1.000	35.478	371.735	53.700	0.000
156.200	55.009	218.418	38.657	30.079	1.000	36.091	371.660	53.700	0.000
156.300	55.009	232.767	38.655	30.079	1.000	36.383	371.616	53.700	0.000
156.400	55.010	241.738	38.655	30.079	1.000	36.789	371.602	53.700	0.000
156.500	55.026	241.901	38.656	30.078	1.000	35.748	371.678	53.700	0.000
156.600	55.034	227.928	38.655	30.079	1.000	35.443	371.713	53.700	0.000
156.700	55.013	225.317	38.656	30.079	1.000	35.616	371.697	53.700	0.000
156.800	55.026	229.535	38.655	30.078	1.000	35.185	371.730	53.700	0.000
156.900	55.034	210.412	38.655	30.078	1.000	34.917	371.742	53.700	0.000
157.000	55.038	219.883	38.654	30.075	1.000	35.326	371.703	53.700	0.000
157.100	55.035	227.308	38.654	30.075	1.000	34.602	371.769	53.700	0.000
157.200	55.030	207.490	38.654	30.074	1.000	34.399	371.782	53.700	0.000
157.300	55.012	216.766	38.654	30.074	1.000	34.117	371.810	53.700	0.000
157.400	55.009	208.010	38.654	30.074	1.000	33.399	371.847	53.700	0.000
157.500	55.009	190.173	38.653	30.074	1.000	33.536	371.857	53.700	0.000
157.600	55.009	200.608	38.653	30.075	1.000	33.530	371.855	53.700	0.000
157.700	55.009	190.811	38.652	30.075	1.000	33.149	371.872	53.700	0.000
157.800	55.009	194.903	38.653	30.075	1.000	34.282	371.800	53.700	0.000
157.900	55.009	213.250	38.652	30.075	1.000	35.057	371.753	53.700	0.000
158.000	55.009	210.916	38.652	30.075	1.000	35.925	371.678	53.700	0.000
158.100	55.009	224.770	38.653	30.073	1.000	36.677	371.601	53.700	0.000
158.200	55.009	241.717	38.653	30.075	1.000	36.619	371.590	53.609	0.000
158.300	55.009	233.031	38.652	30.074	1.000	35.890	371.657	53.600	0.000
158.400	55.009	228.153	38.651	30.076	1.000	35.711	371.673	53.600	0.000
158.500	55.009	235.910	38.650	30.076	1.000	35.277	371.705	53.600	0.000
158.600	55.025	227.925	38.649	30.076	1.000	35.324	371.684	53.600	0.000
158.700	55.034	217.998	38.650	30.076	1.000	35.110	371.702	53.600	0.000
158.800	55.015	228.322	38.650	30.076	1.000	35.139	371.701	53.600	0.000
158.900	55.029	216.087	38.651	30.077	1.000	35.448	371.686	53.600	0.000
159.000	55.031	215.403	38.649	30.077	1.000	34.708	371.753	53.600	0.000
159.100	55.013	220.853	38.650	30.078	1.000	34.504	371.766	53.600	0.000
159.200	55.009	208.499	38.651	30.078	1.000	33.980	371.788	53.600	0.000
159.300	55.009	207.668	38.652	30.078	1.000	33.843	371.797	53.600	0.000
159.400	55.009	203.486	38.653	30.079	1.000	33.578	371.833	53.600	0.000
159.500	55.009	195.248	38.653	30.079	1.000	33.844	371.811	53.600	0.000
159.600	55.010	207.161	38.653	30.079	1.000	33.835	371.812	53.600	0.000
159.700	55.009	201.664	38.653	30.079	1.000	34.722	371.745	53.600	0.000
159.800	55.009	208.478	38.652	30.080	1.000	35.474	371.675	53.600	0.000
159.900	55.010	227.699	38.652	30.081	1.000	35.679	371.662	53.600	0.000
160.000	55.009	224.349	38.654	30.083	1.000	36.808	371.561	53.600	0.000
160.100	55.009	242.853	38.654	30.083	1.000	36.282	371.597	53.600	0.000
160.200	55.010	237.626	38.653	30.083	1.000	35.696	371.661	53.600	0.000
160.300	55.011	219.724	38.653	30.084	1.000	36.029	371.625	53.600	0.000
160.400	55.030	230.869	38.653	30.084	1.000	34.915	371.698	53.600	0.000
160.500	55.029	221.717	38.654	30.085	1.000	35.323	371.687	53.600	0.000
160.600	55.013	213.654	38.654	30.086	1.000	35.102	371.683	53.600	0.000
160.700	55.031	227.782	38.654	30.087	1.000	35.168	371.675	53.600	0.000
160.800	55.027	215.840	38.655	30.087	1.000	35.338	371.667	53.600	0.000
160.900	55.015	218.776	38.655	30.088	1.000	34.604	371.735	53.600	0.000
161.000	55.022	219.585	38.654	30.088	1.000	34.183	371.769	53.600	0.000
161.100	55.009	204.365	38.654	30.088	1.000	33.691	371.781	53.600	0.000
161.200	55.009	202.438	38.654	30.088	1.000	33.748	371.801	53.600	0.000
161.300	55.009	193.678	38.654	30.089	1.000	33.386	371.823	53.600	0.000
161.400	55.009	198.999	38.654	30.090	1.000	34.100	371.748	53.600	0.000
161.500	55.009	209.098	38.654	30.090	1.000	33.729	371.812	53.600	0.000
161.600	55.009	203.432	38.654	30.089	1.000	34.352	371.746	53.600	0.000
161.700	54.970	172.560	38.654	30.089	1.000	28.876	372.081	53.600	0.000
161.800	54.841	-21.911	38.655	30.090	1.000	4.919	373.854	53.600	0.000
161.900	54.631	-490.458	38.657	30.091	1.000	-29.759	376.221	53.600	0.000
162.000	54.386	-1048.605	38.659	30.092	1.000	-55.677	378.793	53.600	0.000
162.100	54.126	-1363.468	38.661	30.094	1.000	-64.699	379.642	53.600	0.000
162.200	53.859	-1458.968	38.661	30.094	1.000	-68.566	380.069	53.600	0.000
162.300	53.577	-1542.572	38.661	30.093	1.000	-72.060	380.407	53.600	0.000
162.400	53.279	-1659.254	38.661	30.093	1.000	-84.342	381.408	53.600	0.000
162.500	52.979	-1747.673	38.661	30.094	1.000	-87.298	381.808	53.600	0.000
162.600	52.679	-1774.294	38.663	30.095	1.000	-88.049	381.956	53.600	0.000
162.700	52.384	-1789.523	38.666	30.096	1.000	-90.747	382.222	53.600	0.000
162.800	52.069	-1829.462	38.667	30.097	1.000	-92.714	382.448	53.600	0.000
162.900	51.735	-1899.269	38.667	30.097	1.000	-97.849	382.880	53.600	0.000
163.000	51.402	-1968.236	38.668	30.098	1.000	-100.292	383.178	53.600	0.000
163.100	51.079	-2008.960	38.668	30.099	1.000	-100.098	383.245	53.600	0.000
163.200	50.756	-2025.797	38.667	30.099	1.000	-100.323	383.319	53.600	0.000
163.300	50.414	-2027.933	38.668	30.099	1.000	-99.605	383.314	53.600	0.000
163.400	50.074	-2026.262	38.670	30.099	1.000	-98.448	383.287	53.600	0.000
163.500	49.752	-2017.721	38.671	30.100	1.000	-97.165	383.257	53.600	0.000
163.600	49.425	-2014.584	38.672	30.100	1.000	-96.412	383.238	53.697	0.000
163.700	49.083	-2016.809	38.672	30.100	1.000	-95.969	383.240	53.700	0.000
163.800	48.766	-2015.570	38.672	30.100	1.000	-95.392	383.214	53.700	0.000
163.900	48.453	-2010.582	38.672	30.100	1.000	-94.355	383.179	53.700	0.000
164.000	48.122	-2005.807	38.672	30.100	1.000	-93.219	383.158	53.700	0.000
164.100	47.791	-2012.641	38.674	30.100	1.000	-93.489	383.213	53.700	0.000
164.200	47.467	-2017.408	38.676	30.100	1.000	-92.730	383.172	53.700	0.000
164.300	47.148	-2019.275	38.677	30.100	1.000	-92.092	383.163	53.700	0.000
164.400	46.830	-2017.291	38.677	30.100	1.000	-91.349	383.129	53.700	0.000
164.500	46.511	-2013.495	38.678	30.100	1.000	-90.560	383.125	53.700	0.000
164.600	46.179	-2017.885	38.678	30.100	1.000	-90.099	383.128	53.700	0.000
164.700	45.857	-2016.898	38.678	30.100	1.000	-89.560	383.095	53.700	0.000
164.800	45.536	-2025.380	38.679	30.099	1.000	-89.360	383.104	53.700	0.000
164.900	45.202	-2026.933	38.680	30.098	1.000	-88.203	383.055	53.700	0.000
165.000	44.884	-2028.400	38.681	30.097	1.000	-87.952	383.051	53.700	0.000
165.100	44.562	-2039.008	38.680	30.097	1.000	-87.448	383.056	53.700	0.000
165.200	44.220	-2058.923	38.680	30.097	1.000	-88.971	383.180	53.700	0.000
165.300	43.878	-2098.592	38.680	30.096	1.000	-90.519	383.338	53.700	0.000
165.400	43.524	-2141.878	38.680	30.096	1.000	-90.945	383.414	53.700	0.000
165.500	43.180	-2160.125	38.680	30.095	1.000	-91.092	383.481	53.700	0.000
165.600	42.843	-2158.857	38.680	30.094	1.000	-89.954	383.407	53.700	0.000
165.700	42.497	-2159.979	38.680	30.093	1.000	-88.972	383.364	53.700	0.000
165.800	42.173	-2158.721	38.680	30.093	1.000	-88.198	383.326	53.700	0.000
165.900	41.836	-2160.559	38.680	30.094	1.000	-87.126	383.267	53.700	0.000
166.000	41.496	-2153.441	38.680	30.093	1.000	-86.342	383.214	53.799	0.000
166.100	41.151	-2156.306	38.680	30.093	1.000	-85.698	383.209	53.800	0.000
166.200	40.810	-2153.319	38.677	30.092	1.000	-85.134	383.170	53.800	0.000
166.300	40.470	-2157.455	38.676	30.091	1.000	-84.065	383.117	53.800	0.000
166.400	40.131	-2153.836	38.675	30.091	1.000	-83.539	383.093	53.800	0.000
166.500	39.789	-2160.310	38.674	30.090	1.000	-82.704	383.056	53.800	0.000
166.600	39.449	-2162.679	38.674	30.089	1.000	-82.592	383.071	53.800	0.000
166.700	39.106	-2179.032	38.674	30.090	1.000	-82.540	383.089	53.800	0.000
166.800	38.762	-2189.044	38.674	30.090	1.000	-81.791	383.042	53.800	0.000
166.900	38.424	-2191.192	38.673	30.089	1.000	-80.840	382.985	53.800	0.000
167.000	38.082	-2193.222	38.670	30.090	1.000	-80.447	382.961	53.800	0.000
167.100	37.726	-2189.884	38.666	30.090	1.000	-79.484	382.903	53.800	0.000
167.200	37.374	-2192.450	38.666	30.089	1.000	-78.878	382.876	53.800	0.000
167.300	37.039	-2187.691	38.666	30.089	1.000	-78.242	382.841	53.800	0.000
167.400	36.679	-2199.233	38.666	30.089	1.000	-77.577	382.808	53.800	0.000
167.500	36.340	-2212.211	38.666	30.089	1.000	-78.233	382.889	53.800	0.000
167.600	35.993	-2248.882	38.664	30.089	1.000	-78.066	382.903	53.800	0.000
167.700	35.640	-2259.975	38.660	30.089	1.000	-77.628	382.884	53.800	0.000
167.800	35.289	-2265.386	38.655	30.091	1.000	-76.906	382.846	53.800	0.000
167.900	34.932	-2277.740	38.653	30.091	1.000	-76.651	382.836	53.800	0.000
168.000	34.584	-2271.938	38.653	30.091	1.000	-75.676	382.772	53.800	0.000
168.100	34.218	-2286.759	38.652	30.091	1.000	-75.276	382.764	53.800	0.000
168.200	33.859	-2289.550	38.651	30.091	1.000	-75.048	382.760	53.800	0.000
168.300	33.518	-2299.904	38.652	30.091	1.000	-73.900	382.675	53.800	0.000
168.400	33.169	-2302.228	38.647	30.091	1.000	-73.452	382.667	53.800	0.000
168.500	32.805	-2300.179	38.638	30.092	1.000	-72.466	382.616	53.800	0.000
168.600	32.443	-2320.947	38.633	30.093	1.000	-71.823	382.574	53.800	0.000
168.700	32.087	-2321.356	38.632	30.093	1.000	-71.686	382.577	53.893	0.000
168.800	31.718	-2335.885	38.632	30.093	1.000	-70.788	382.524	53.900	0.000
168.900	31.362	-2351.587	38.631	30.093	1.000	-70.710	382.519	53.900	0.000
169.000	31.001	-2348.134	38.631	30.093	1.000	-69.812	382.465	53.900	0.000
169.100	30.639	-2367.732	38.627	30.094	1.000	-69.270	382.423	53.900	0.000
169.200	30.279	-2379.855	38.615	30.098	1.000	-69.052	382.414	53.900	0.000
169.300	29.904	-2381.361	38.608	30.101	1.000	-68.345	382.384	53.900	0.000
169.400	29.525	-2408.849	38.606	30.101	1.000	-67.933	382.364	53.900	0.000
169.500	29.168	-2424.544	38.605	30.102	1.000	-67.853	382.372	53.900	0.000
169.600	28.778	-2436.047	38.606	30.103	1.000	-67.370	382.338	53.900	0.000
169.700	28.401	-2472.571	38.606	30.102	1.000	-67.347	382.360	53.900	0.000
169.800	28.026	-2496.646	38.604	30.103	1.000	-66.672	382.294	53.900	0.000
169.900	27.644	-2489.814	38.596	30.106	1.000	-65.851	382.264	53.900	0.000
170.000	27.272	-2513.326	38.585	30.111	1.000	-65.145	382.220	53.900	0.000
170.100	26.885	-2511.550	38.581	30.114	1.000	-63.863	382.123	53.900	0.000
170.200	26.486	-2497.275	38.578	30.114	1.000	-63.549	382.089	53.900	0.000
170.300	26.097	-2530.186	38.578	30.114	1.000	-62.912	382.053	53.900	0.000
170.400	25.705	-2542.115	38.578	30.115	1.000	-61.681	381.980	53.900	0.000
170.500	25.317	-2544.230	38.575	30.115	1.000	-61.380	381.972	53.900	0.000
170.600	24.931	-2586.031	38.564	30.119	1.000	-61.278	381.956	53.900	0.000
170.700	24.541	-2613.885	38.548	30.127	1.000	-60.317	381.903	53.900	0.000
170.800	24.155	-2605.883	38.543	30.130	1.000	-59.480	381.852	53.900	0.000
170.900	23.754	-2619.142	38.541	30.131	1.000	-58.965	381.809	53.900	0.000
171.000	23.330	-2649.448	38.540	30.132	1.000	-58.139	381.751	53.900	0.000
171.100	22.935	-2652.816	38.539	30.131	1.000	-57.162	381.677	53.900	0.000
171.200	22.538	-2651.550	38.539	30.132	1.000	-56.337	381.607	53.900	0.000
171.300	22.123	-2684.111	38.531	30.135	1.000	-55.592	381.549	53.900	0.000
171.400	21.709	-2696.225	38.512	30.142	1.000	-54.604	381.495	53.900	0.000
171.500	21.291	-2704.990	38.502	30.147	1.000	-54.004	381.464	53.900	0.000
171.600	20.879	-2714.461	38.499	30.150	1.000	-53.116	381.402	53.900	0.000
171.700	20.464	-2757.683	38.498	30.152	1.000	-52.519	381.359	53.900	0.000
171.800	20.044	-2774.515	38.498	30.150	1.000	-51.624	381.297	53.900	0.000
171.900	19.607	-2815.328	38.498	30.151	1.000	-51.892	381.320	53.900	0.000
172.000	19.168	-2867.436	38.490	30.154	1.000	-51.632	381.309	53.900	0.000
172.100	18.719	-2939.193	38.469	30.163	1.000	-50.899	381.241	53.900	0.000
172.200	18.267	-2949.100	38.455	30.172	1.000	-49.657	381.141	53.998	0.000
172.300	17.836	-2959.669	38.451	30.174	1.000	-48.407	381.046	54.000	0.000
172.400	17.388	-2946.609	38.449	30.175	1.000	-47.085	380.960	54.000	0.000
172.500	16.949	-2951.849	38.449	30.176	1.000	-45.564	380.859	54.000	0.000
172.600	16.508	-2978.289	38.449	30.177	1.000	-44.403	380.762	54.000	0.000
172.700	16.055	-2970.665	38.445	30.178	1.000	-43.072	380.650	54.000	0.000
172.800	15.612	-2983.566	38.428	30.185	1.000	-41.988	380.568	54.000	0.000
172.900	15.155	-2979.642	38.404	30.199	1.000	-40.499	380.448	54.000	0.000
173.000	14.717	-2996.319	38.395	30.205	1.000	-39.483	380.370	54.000	0.000
173.100	14.274	-3034.812	38.393	30.206	1.000	-38.115	380.265	54.000	0.000
173.200	13.812	-3013.352	38.391	30.208	1.000	-36.440	380.125	54.000	0.000
173.300	13.347	-3011.219	38.391	30.208	1.000	-35.272	380.039	54.000	0.000
173.400	12.911	-3022.223	38.388	30.209	1.000	-33.691	379.909	54.000	0.000
173.500	12.463	-3002.960	38.371	30.217	1.000	-32.057	379.791	54.000	0.000
173.600	12.001	-3023.404	38.343	30.235	1.000	-30.468	379.661	54.000	0.000
173.700	11.541	-3069.274	38.333	30.242	1.000	-29.008	379.541	54.000	0.000
173.800	11.096	-3096.883	38.330	30.245	1.000	-27.434	379.413	54.000	0.000
173.900	10.615	-3139.186	38.329	30.247	1.000	-25.759	379.281	54.000	0.000
174.000	10.128	-3207.963	38.329	30.248	1.000	-24.275	379.152	54.000	0.000
174.100	9.637	-3233.872	38.328	30.248	1.000	-22.564	379.012	54.000	0.000
174.200	9.175	-3225.675	38.318	30.253	1.000	-21.057	378.872	54.000	0.000
174.300	8.703	-3219.742	38.287	30.270	1.000	-19.402	378.740	54.000	0.000
174.400	8.221	-3228.033	38.269	30.284	1.000	-17.964	378.626	54.000	0.000
174.500	7.731	-3244.874	38.263	30.288	1.000	-16.664	378.523	54.000	0.000
174.600	7.241	-3237.688	38.262	30.291	1.000	-15.226	378.414	54.000	0.000
174.700	6.759	-3234.271	38.260	30.292	1.000	-13.578	378.275	54.000	0.000
174.800	6.292	-3238.984	38.260	30.292	1.000	-11.866	378.116	54.000	0.000
174.900	5.830	-3253.855	38.252	30.296	1.000	-10.546	378.008	54.000	0.000
175.000	5.346	-3265.028	38.220	30.315	1.000	-8.845	377.865	54.000	0.000
175.100	4.862	-3255.230	38.197	30.332	1.000	-7.124	377.708	54.000	0.000
175.200	4.380	-3232.767	38.191	30.339	1.000	-5.462	377.564	54.000	0.000
175.300	3.943	-3219.043	38.189	30.340	1.000	-3.547	377.402	54.000	0.000
175.400	3.510	-3186.562	38.188	30.343	1.000	-1.405	377.218	54.000	0.000
175.500	3.090	-3125.804	38.187	30.343	1.000	0.462	377.065	54.000	0.000
175.600	2.657	-3099.036	38.184	30.344	1.000	2.008	376.943	54.000	0.000
175.700	2.243	-3081.287	38.160	30.358	1.000	3.185	376.836	54.000	0.000
175.800	1.841	-3033.931	38.125	30.384	1.000	4.077	376.762	54.000	0.000
175.900	1.444	-2941.755	38.114	30.396	1.000	4.592	376.692	54.000	0.000
176.000	1.036	-2835.715	38.110	30.400	1.000	4.715	376.671	54.000	0.000
176.100	0.672	-2766.928	38.110	30.401	1.000	4.891	376.633	54.000	0.000
176.200	0.322	-2376.626	38.110	30.401	1.000	5.256	376.594	54.000	0.000
176.300	0.074	-862.491	38.107	30.404	1.000	5.367	376.581	54.000	0.000
176.400	-0.094	-20.564	38.086	30.417	1.000	5.513	376.574	54.000	0.000
176.500	-0.134	-58.579	38.049	30.449	1.000	5.704	376.551	54.000	0.000
176.600	-0.053	-12.311	38.033	30.463	1.000	5.748	376.531	54.000	0.000
176.700	0.044	-12.357	38.030	30.467	1.000	5.261	376.561	54.000	0.000
176.800	0.054	-12.294	38.030	30.470	1.000	5.028	376.577	54.000	0.000
176.900	-0.004	-12.476	38.028	30.469	1.000	4.838	376.577	54.000	0.000
177.000	-0.094	-12.434	38.028	30.471	1.000	4.819	376.574	54.000	0.000
177.100	-0.060	-12.367	38.019	30.477	1.000	4.788	376.573	54.000	0.000
177.200	-0.005	-12.350	37.982	30.508	1.000	4.765	376.570	54.000	0.000
177.300	0.055	-12.435	37.959	30.532	1.000	4.746	376.554	54.000	0.000
177.400	0.010	-12.358	37.953	30.539	1.000	4.766	376.554	54.000	0.000
177.500	0.001	-12.264	37.950	30.543	1.000	4.743	376.565	54.000	0.000
177.600	-0.045	-12.279	37.949	30.545	1.000	4.744	376.551	54.000	0.000
177.700	-0.012	-12.354	37.948	30.545	1.000	4.769	376.543	54.000	0.000
177.800	0.010	-12.259	37.942	30.551	1.000	4.777	376.542	54.000	0.000
177.900	0.010	-12.467	37.905	30.580	1.000	4.757	376.531	54.000	0.000
178.000	0.010	-12.350	37.881	30.609	1.000	4.777	376.527	54.000	0.000
178.100	0.010	-12.192	37.874	30.620	1.000	4.748	376.527	54.000	0.000
178.200	0.010	-12.205	37.872	30.623	1.000	4.739	376.516	54.000	0.000
178.300	0.010	-12.316	37.870	30.625	1.000	4.752	376.508	54.000	0.000
178.400	0.010	-12.419	37.870	30.625	1.000	4.748	376.504	54.000	0.000
178.500	0.010	-12.222	37.868	30.627	1.000	4.600	376.526	54.000	0.000
178.600	0.010	-12.421	37.847	30.644	1.000	1.008	376.793	54.000	0.000
178.700	0.010	-12.236	37.813	30.684	1.000	0.689	376.817	54.000	0.000
178.800	0.010	-12.307	37.804	30.701	1.000	0.641	376.822	54.000	0.000
178.900	0.010	-12.361	37.799	30.707	1.000	0.603	376.826	54.000	0.000
179.000	0.010	-12.238	37.798	30.710	1.000	0.591	376.822	54.000	0.000
179.100	0.010	-12.344	37.799	30.710	1.000	0.589	376.829	54.000	0.000
179.200	0.010	-12.431	37.797	30.712	1.000	0.575	376.819	54.000	0.000
179.300	0.010	-12.300	37.781	30.727	1.000	0.581	376.822	54.000	0.000
179.400	0.010	-12.297	37.745	30.768	1.000	0.576	376.822	54.000	0.000
179.500	0.010	-12.273	37.732	30.787	1.000	0.594	376.826	54.000	0.000
179.600	0.010	-12.359	37.728	30.794	1.000	0.579	376.829	54.000	0.000
179.700	0.009	-12.219	37.727	30.798	1.000	0.584	376.819	54.000	0.000
179.800	0.010	-12.127	37.727	30.797	1.000	0.573	376.825	54.000	0.000
179.900	0.009	-12.228	37.726	30.798	1.000	0.573	376.818	54.000	0.000
180.000	0.010	-12.237	37.719	30.804	1.000	0.563	376.825	54.000	0.000
180.100	0.010	-12.353	37.686	30.839	1.000	0.573	376.818	54.000	0.000
180.200	0.010	-12.540	37.667	30.870	1.000	0.550	376.807	54.000	0.000
180.300	0.010	-12.372	37.660	30.882	1.000	0.482	376.817	54.000	0.000
180.400	0.010	-12.372	37.660	30.882	1.000	0.466	376.829	54.000	0.000
180.500	0.010	-12.372	37.660	30.882	1.000	0.466	376.830	54.000	0.000
180.600	0.010	-12.372	37.660	30.882	1.000	0.466	376.830	54.000	0.000
180.700	0.010	-12.372	37.660	30.882	1.000	0.466	376.830	54.000	0.000
180.800	0.010	-12.372	37.660	30.882	1.000	0.466	376.830	54.000	0.000
180.900	0.010	-12.372	37.660	30.882	1.000	0.466	376.830	54.000	0.000
181.000	0.010	-12.372	37.660	30.882	1.000	0.466	376.830	54.000	0.000
181.100	0.010	-12.372	37.660	30.882	1.000	0.466	376.830	54.000	0.000
181.200	0.010	-12.372	37.660	30.882	1.000	0.466	376.830	54.000	0.000
181.300	0.010	-12.372	37.660	30.882	1.000	0.466	376.830	54.000	0.000
181.400	0.010	-12.372	37.660	30.882	1.000	0.466	376.830	54.000	0.000
181.500	0.010	-12.372	37.660	30.882	1.000	0.466	376.830	54.000	0.000
181.600	0.010	-12.372	37.660	30.882	1.000	0.466	376.830	54.000	0.000
181.700	0.010	-12.372	37.660	30.882	1.000	0.466	376.830	54.000	0.000
181.800	0.010	-12.372	37.660	30.882	1.000	0.466	376.830	54.000	0.000
181.900	0.010	-12.372	37.660	30.882	1.000	0.466	376.830	54.000	0.000
182.000	0.010	-12.372	37.660	30.882	1.000	0.466	376.830	54.000	0.000
182.100	0.010	-12.372	37.660	30.882	1.000	0.466	376.830	54.000	0.000
182.200	0.010	-12.372	37.660	30.882	1.000	0.466	376.830	54.000	0.000
182.300	0.010	-12.372	37.660	30.882	1.000	0.466	376.830	54.000	0.000
182.400	0.010	-12.372	37.660	30.882	1.000	0.466	376.830	54.000	0.000
182.500	0.010	-12.372	37.660	30.882	1.000	0.466	376.830	54.000	0.000
182.600	0.010	-12.372	37.660	30.882	1.000	0.466	376.830	54.000	0.000
182.700	0.010	-12.372	37.660	30.882	1.000	0.466	376.830	54.000	0.000
182.800	0.010	-12.372	37.660	30.882	1.000	0.466	376.830	54.000	0.000
182.900	0.010	-12.372	37.660	30.882	1.000	0.466	376.830	54.000	0.000
183.000	0.010	-12.372	37.660	30.882	1.000	0.466	376.830	54.000	0.000
183.100	0.010	-12.372	37.660	30.882	1.000	0.466	376.830	54.000	0.000
183.200	0.010	-12.372	37.660	30.882	1.000	0.466	376.830	54.000	0.000
183.300	0.010	-12.372	37.660	30.882	1.000	0.466	376.830	54.000	0.000
