Time[sec]	Test_Cell_Temp[C]	Test_Cell_RH[%]	Phase_#	Dyno_Speed[mph]	Dyno_Tractive_Effort[N]	HV_Battery_Current[A]	HV_Battery_Voltage[V]	HV_Battery_SOC[%]	Accelerator_Pedal_Position[%]
-10.000	19.802	42.642	0.000	0.000	-11.419	0.808	312.794	26.800	0.000
-9.900	19.801	42.642	0.000	0.000	-11.370	1.025	312.777	26.800	0.000
-9.800	19.802	42.641	0.000	0.000	-11.299	1.124	312.769	26.800	0.000
-9.700	19.799	42.643	0.000	0.000	-11.163	1.120	312.765	26.800	0.000
-9.600	19.799	42.646	0.000	0.000	-11.595	1.118	312.769	26.800	0.000
-9.500	19.798	42.646	0.000	0.000	-11.588	1.128	312.761	26.800	0.000
-9.400	19.799	42.648	0.000	0.000	-11.259	1.087	312.764	26.800	0.000
-9.300	19.797	42.647	0.000	0.000	-11.409	1.049	312.768	26.800	0.000
-9.200	19.798	42.648	0.000	0.000	-11.243	1.031	312.784	26.800	0.000
-9.100	19.799	42.647	0.000	0.000	-11.283	1.113	312.778	26.800	0.000
-9.000	19.797	42.652	0.000	0.001	-11.483	1.122	312.772	26.800	0.000
-8.900	19.797	42.654	0.000	0.000	-11.379	1.071	312.772	26.800	0.000
-8.800	19.796	42.654	0.000	0.000	-11.235	1.050	312.772	26.800	0.000
-8.700	19.796	42.654	0.000	0.000	-11.283	1.032	312.788	26.800	0.000
-8.600	19.794	42.654	0.000	0.000	-11.484	1.028	312.779	26.800	0.000
-8.500	19.795	42.655	0.000	0.001	-11.313	1.029	312.780	26.800	0.000
-8.400	19.796	42.653	0.000	0.000	-11.291	1.029	312.783	26.800	0.000
-8.300	19.795	42.655	0.000	0.000	-11.355	1.040	312.775	26.800	0.000
-8.200	19.792	42.658	0.000	0.001	-11.363	1.036	312.769	26.800	0.000
-8.100	19.790	42.660	0.000	0.000	-11.363	1.028	312.778	26.800	0.000
-8.000	19.789	42.660	0.000	0.000	-11.427	1.026	312.786	26.800	0.000
-7.900	19.787	42.662	0.000	0.000	-11.435	1.026	312.790	26.800	0.000
-7.800	19.789	42.662	0.000	0.000	-11.498	1.026	312.794	26.800	0.000
-7.700	19.790	42.662	0.000	0.000	-11.381	1.026	312.789	26.800	0.000
-7.600	19.789	42.661	0.000	0.000	-11.299	1.030	312.792	26.800	0.000
-7.500	19.787	42.663	0.000	0.000	-11.484	1.028	312.792	26.800	0.000
-7.400	19.787	42.665	0.000	0.000	-11.315	1.012	312.788	26.800	0.000
-7.300	19.786	42.666	0.000	0.000	-11.355	1.011	312.787	26.800	0.000
-7.200	19.787	42.666	0.000	0.000	-11.363	1.010	312.790	26.800	0.000
-7.100	19.787	42.667	0.000	0.000	-11.427	1.005	312.783	26.800	0.000
-7.000	19.786	42.667	0.000	0.001	-11.116	1.005	312.766	26.800	0.000
-6.900	19.786	42.667	0.000	0.002	-11.265	0.980	312.771	26.800	0.000
-6.800	19.785	42.670	0.000	0.000	-11.291	0.950	312.783	26.800	0.000
-6.700	19.785	42.672	0.000	0.000	-11.227	0.915	312.790	26.800	0.000
-6.600	19.783	42.672	0.000	0.000	-11.472	0.918	312.799	26.800	0.000
-6.500	19.782	42.672	0.000	0.001	-11.377	0.943	312.795	26.800	0.000
-6.400	19.782	42.674	0.000	0.000	-11.171	0.978	312.791	26.800	0.000
-6.300	19.783	42.674	0.000	0.000	-11.211	0.997	312.791	26.800	0.000
-6.200	19.784	42.672	0.000	0.000	-11.413	1.037	312.774	26.800	0.000
-6.100	19.781	42.676	0.000	0.001	-11.240	1.040	312.762	26.800	0.000
-6.000	19.781	42.677	0.000	0.001	-11.614	1.021	312.780	26.800	0.000
-5.900	19.780	42.681	0.000	0.000	-11.324	0.999	312.790	26.800	0.000
-5.800	19.780	42.679	0.000	0.000	-11.291	0.993	312.794	26.800	0.000
-5.700	19.781	42.679	0.000	0.001	-11.492	0.991	312.776	26.800	0.000
-5.600	19.780	42.680	0.000	0.000	-11.305	0.990	312.765	26.800	0.000
-5.500	19.780	42.681	0.000	0.000	-11.425	0.993	312.767	26.800	0.000
-5.400	19.780	42.681	0.000	0.001	-11.302	0.993	312.768	26.800	0.000
-5.300	19.778	42.684	0.000	0.000	-11.291	0.988	312.764	26.800	0.000
-5.200	19.780	42.685	0.000	0.000	-11.359	0.984	312.767	26.800	0.000
-5.100	19.779	42.685	0.000	0.000	-11.295	0.984	312.771	26.800	0.000
-5.000	19.778	42.687	0.000	0.000	-11.359	0.986	312.765	26.800	0.000
-4.900	19.780	42.687	0.000	0.000	-11.363	0.990	312.760	26.800	0.000
-4.800	19.780	42.686	0.000	0.001	-11.363	0.984	312.763	26.800	0.000
-4.700	19.779	42.688	0.000	0.000	-11.500	0.990	312.767	26.800	0.000
-4.600	19.778	42.691	0.000	0.000	-11.507	0.962	312.786	26.800	0.000
-4.500	19.776	42.691	0.000	0.000	-11.233	0.939	312.798	26.800	0.000
-4.400	19.776	42.691	0.000	0.001	-11.287	0.787	312.791	26.800	0.000
-4.300	19.777	42.691	0.000	0.000	-11.426	0.866	312.791	26.800	0.000
-4.200	19.776	42.693	0.000	0.001	-11.297	0.833	312.783	26.800	0.000
-4.100	19.776	42.693	0.000	0.000	-11.359	0.886	312.783	26.800	0.000
-4.000	19.776	42.694	0.000	0.001	-11.363	0.719	312.791	26.800	0.000
-3.900	19.776	42.694	0.000	0.001	-11.432	0.821	312.795	26.800	0.000
-3.800	19.774	42.697	0.000	0.000	-11.639	0.813	312.791	26.800	0.000
-3.700	19.774	42.700	0.000	0.002	-11.445	0.831	312.783	26.800	0.000
-3.600	19.774	42.701	0.000	0.000	-11.435	0.652	312.791	26.800	0.000
-3.500	19.773	42.701	0.000	0.000	-11.366	0.774	312.791	26.800	0.000
-3.400	19.773	42.698	0.000	0.000	-11.295	0.820	312.791	26.800	0.000
-3.300	19.774	42.701	0.000	0.000	-11.494	0.806	312.791	26.800	0.000
-3.200	19.773	42.703	0.000	0.000	-11.371	0.797	312.791	26.800	0.000
-3.100	19.773	42.706	0.000	0.001	-11.431	0.738	312.795	26.800	0.000
-3.000	19.773	42.709	0.000	0.000	-11.233	0.747	312.791	26.800	0.000
-2.900	19.773	42.707	0.000	0.000	-11.356	0.711	312.795	26.800	0.000
-2.800	19.773	42.707	0.000	0.000	-11.294	0.763	312.795	26.800	0.000
-2.700	19.773	42.707	0.000	0.000	-11.291	0.767	312.784	26.800	0.000
-2.600	19.773	42.707	0.000	0.000	-11.427	0.694	312.790	26.800	0.000
-2.500	19.771	42.710	0.000	0.000	-11.232	0.698	312.791	26.800	0.000
-2.400	19.770	42.714	0.000	0.001	-11.356	0.616	312.795	26.800	0.000
-2.300	19.768	42.714	0.000	0.000	-11.227	0.684	312.791	26.800	0.000
-2.200	19.767	42.716	0.000	0.000	-11.355	0.611	312.791	26.800	0.000
-2.100	19.768	42.716	0.000	0.000	-11.431	0.681	312.791	26.800	0.000
-2.000	19.769	42.716	0.000	0.001	-11.367	0.482	312.809	26.800	0.000
-1.900	19.767	42.718	0.000	0.000	-11.363	0.539	312.803	26.800	0.000
-1.800	19.767	42.718	0.000	0.001	-11.227	0.585	312.783	26.800	0.000
-1.700	19.766	42.720	0.000	0.001	-11.422	0.580	312.786	26.800	0.000
-1.600	19.765	42.722	0.000	0.000	-11.230	0.286	312.805	26.800	0.000
-1.500	19.763	42.723	0.000	0.000	-11.353	0.268	312.814	26.800	0.000
-1.400	19.765	42.721	0.000	0.000	-11.500	0.213	312.811	26.800	0.000
-1.300	19.764	42.722	0.000	0.001	-11.373	0.187	312.810	26.800	0.000
-1.200	19.763	42.723	0.000	0.000	-11.363	0.214	312.814	26.800	0.000
-1.100	19.764	42.724	0.000	0.000	-11.701	0.229	312.821	26.800	0.000
-1.000	19.763	42.728	0.000	0.000	-11.450	0.251	312.822	26.800	0.000
-0.900	19.762	42.731	0.000	0.000	-11.301	0.276	312.815	26.800	0.000
-0.800	19.761	42.732	0.000	0.001	-11.427	0.288	312.814	26.800	0.000
-0.700	19.760	42.731	0.000	0.001	-11.503	0.312	312.821	26.800	0.000
-0.600	19.760	42.732	0.000	0.000	-11.440	0.329	312.815	26.800	0.000
-0.500	19.760	42.732	0.000	0.000	-11.300	0.345	312.811	26.800	0.000
-0.400	19.761	42.732	0.000	0.000	-11.354	0.347	312.814	26.800	0.000
-0.300	19.760	42.734	0.000	0.001	-11.363	0.358	312.814	26.800	0.000
-0.200	19.758	42.738	0.000	0.001	-11.431	0.362	312.818	26.800	0.000
-0.100	19.758	42.738	0.000	0.003	-11.571	0.363	312.815	26.800	0.000
-0.000	19.757	42.738	0.000	0.001	-11.311	0.371	312.818	26.800	0.000
0.100	19.758	42.737	0.000	0.000	-11.561	0.378	312.815	26.800	0.000
0.200	19.757	42.737	0.000	0.000	-11.445	0.379	312.811	26.800	0.000
0.300	19.757	42.739	0.000	0.001	-11.501	0.329	312.814	26.800	0.000
0.400	19.755	42.740	0.000	0.000	-11.303	0.315	312.814	26.800	0.000
0.500	19.754	42.743	0.000	0.000	-11.424	0.317	312.811	26.800	0.000
0.600	19.754	42.745	0.000	0.001	-11.368	0.315	312.810	26.800	0.000
0.700	19.753	42.745	0.000	0.000	-11.228	0.323	312.810	26.800	0.000
0.800	19.754	42.746	0.000	0.000	-11.421	0.338	312.821	26.800	0.000
0.900	19.752	42.745	0.000	0.000	-11.299	0.343	312.815	26.800	0.000
1.000	19.752	42.746	0.935	0.000	-11.358	0.343	312.811	26.800	0.000
1.100	19.754	42.746	1.000	0.001	-11.565	0.361	312.814	26.800	0.000
1.200	19.752	42.752	1.000	0.000	-11.375	0.363	312.814	26.800	0.000
1.300	19.752	42.753	1.000	0.001	-11.498	0.357	312.814	26.800	0.000
1.400	19.749	42.753	1.000	0.000	-11.305	0.387	312.811	26.800	0.000
1.500	19.751	42.753	1.000	0.000	-11.358	0.398	312.810	26.800	0.000
1.600	19.750	42.753	1.000	0.000	-11.296	0.497	312.814	26.800	0.000
1.700	19.751	42.756	1.000	0.000	-11.425	0.491	312.818	26.800	0.000
1.800	19.752	42.754	1.000	0.000	-11.569	0.492	312.811	26.800	0.000
1.900	19.751	42.757	1.000	0.000	-11.310	0.492	312.817	26.800	0.000
2.000	19.747	42.760	1.000	0.000	-11.427	0.634	312.808	26.800	0.000
2.100	19.748	42.762	1.000	0.000	-11.569	0.714	312.793	26.800	0.000
2.200	19.750	42.764	1.000	0.000	-11.511	0.733	312.787	26.800	0.000
2.300	19.749	42.763	1.000	0.000	-11.238	0.740	312.787	26.800	0.000
2.400	19.749	42.763	1.000	0.000	-11.286	0.758	312.790	26.800	0.000
2.500	19.749	42.764	1.000	0.000	-11.425	0.703	312.791	26.800	0.000
2.600	19.747	42.766	1.000	0.000	-11.233	0.699	312.801	26.800	0.000
2.700	19.747	42.767	1.000	0.000	-11.352	0.733	312.792	26.800	0.000
2.800	19.746	42.769	1.000	0.000	-11.363	0.755	312.787	26.800	0.000
2.900	19.747	42.769	1.000	0.000	-11.296	0.746	312.787	26.800	0.000
3.000	19.747	42.771	1.000	0.000	-11.358	0.744	312.780	26.800	0.000
3.100	19.747	42.771	1.000	0.000	-11.363	0.750	312.789	26.800	0.000
3.200	19.747	42.769	1.000	0.000	-11.363	0.751	312.784	26.800	0.000
3.300	19.747	42.771	1.000	0.001	-11.230	0.754	312.793	26.800	0.000
3.400	19.747	42.777	1.000	0.000	-11.354	0.748	312.791	26.800	0.000
3.500	19.744	42.779	1.000	0.000	-11.363	0.750	312.791	26.800	0.000
3.600	19.745	42.778	1.000	0.001	-11.701	0.751	312.801	26.800	0.000
3.700	19.746	42.779	1.000	0.000	-11.321	0.765	312.786	26.800	0.000
3.800	19.745	42.779	1.000	0.000	-11.561	0.767	312.776	26.800	0.000
3.900	19.744	42.778	1.000	0.000	-11.241	0.772	312.789	26.800	0.000
4.000	19.744	42.779	1.000	0.000	-11.420	0.776	312.794	26.800	0.000
4.100	19.741	42.783	1.000	0.000	-11.435	0.768	312.788	26.800	0.000
4.200	19.741	42.785	1.000	0.000	-11.369	0.770	312.790	26.800	0.000
4.300	19.740	42.787	1.000	0.000	-11.363	0.767	312.791	26.800	0.000
4.400	19.739	42.786	1.000	0.001	-11.363	0.772	312.791	26.800	0.000
4.500	19.741	42.788	1.000	0.000	-11.296	0.779	312.791	26.800	0.000
4.600	19.739	42.786	1.000	0.000	-11.554	0.774	312.791	26.800	0.000
4.700	19.741	42.785	1.000	0.000	-11.247	0.776	312.791	26.800	0.000
4.800	19.738	42.789	1.000	0.001	-11.354	0.768	312.791	26.800	0.000
4.900	19.740	42.794	1.000	0.000	-11.295	0.770	312.784	26.800	0.000
5.000	19.738	42.795	1.000	0.000	-11.493	0.767	312.793	26.800	0.000
5.100	19.737	42.797	1.000	0.000	-11.237	0.775	312.798	26.800	0.000
5.200	19.739	42.796	1.000	0.000	-11.486	0.771	312.792	26.800	0.000
5.300	19.740	42.796	1.000	0.000	-11.307	0.770	312.791	26.800	0.000
5.400	19.738	42.796	1.000	0.000	-11.426	0.770	312.791	26.800	0.000
5.500	19.738	42.800	1.000	0.000	-11.301	0.767	312.791	26.800	0.000
5.600	19.735	42.804	1.000	0.000	-11.357	0.770	312.791	26.800	0.000
5.700	19.735	42.803	1.000	0.000	-11.363	0.770	312.791	26.800	0.000
5.800	19.734	42.804	1.000	0.000	-11.430	0.770	312.794	26.800	0.000
5.900	19.734	42.805	1.000	0.000	-11.368	0.773	312.785	26.800	0.000
6.000	19.733	42.803	1.000	0.001	-11.630	0.768	312.790	26.800	0.000
6.100	19.734	42.805	1.000	0.000	-11.451	0.770	312.791	26.800	0.000
6.200	19.734	42.806	1.000	0.000	-11.501	0.778	312.801	26.800	0.000
6.300	19.734	42.809	1.000	0.000	-11.374	0.772	312.793	26.800	0.000
6.400	19.733	42.811	1.000	0.000	-11.363	0.773	312.791	26.800	0.000
6.500	19.732	42.811	1.000	0.000	-11.296	0.773	312.784	26.800	0.000
6.600	19.732	42.811	1.000	0.000	-11.357	0.790	312.786	26.800	0.000
6.700	19.731	42.811	1.000	0.000	-11.296	0.793	312.790	26.800	0.000
6.800	19.730	42.811	1.000	0.000	-11.291	0.795	312.788	26.800	0.000
6.900	19.732	42.812	1.000	0.000	-11.224	0.799	312.787	26.800	0.000
7.000	19.729	42.817	1.000	0.000	-11.219	0.794	312.790	26.800	0.000
7.100	19.728	42.821	1.000	0.000	-11.418	0.798	312.791	26.800	0.000
7.200	19.728	42.820	1.000	0.000	-11.435	0.799	312.788	26.800	0.000
7.300	19.728	42.821	1.000	0.000	-11.435	0.794	312.790	26.800	0.000
7.400	19.728	42.820	1.000	0.000	-11.435	0.795	312.791	26.800	0.000
7.500	19.727	42.821	1.000	0.000	-11.368	0.799	312.788	26.800	0.000
7.600	19.727	42.820	1.000	0.001	-11.363	0.797	312.790	26.800	0.000
7.700	19.725	42.823	1.000	0.000	-11.363	0.796	312.785	26.800	0.000
7.800	19.726	42.825	1.000	0.001	-11.495	0.791	312.793	26.800	0.000
7.900	19.725	42.827	1.000	0.000	-11.507	0.795	312.792	26.800	0.000
8.000	19.726	42.827	1.000	0.000	-11.172	0.799	312.791	26.800	0.000
8.100	19.725	42.827	1.000	0.000	-11.281	0.791	312.785	26.800	0.000
8.200	19.725	42.829	1.000	0.003	-11.490	0.792	312.790	26.800	0.000
8.300	19.723	42.826	1.000	0.000	-11.507	0.795	312.791	26.800	0.000
8.400	19.726	42.830	1.000	0.001	-11.507	0.799	312.791	26.800	0.000
8.500	19.722	42.834	1.000	0.000	-11.440	0.799	312.785	26.800	0.000
8.600	19.721	42.837	1.000	0.000	-11.502	0.799	312.786	26.800	0.000
8.700	19.721	42.836	1.000	0.000	-11.574	0.797	312.800	26.800	0.000
8.800	19.721	42.837	1.000	0.000	-11.447	0.796	312.793	26.800	0.000
8.900	19.721	42.836	1.000	0.000	-11.368	0.791	312.794	26.800	0.000
9.000	19.721	42.836	1.000	0.000	-11.561	0.797	312.792	26.800	0.000
9.100	19.721	42.837	1.000	0.000	-11.245	0.799	312.788	26.800	0.000
9.200	19.720	42.840	1.000	0.000	-11.350	0.794	312.790	26.800	0.000
9.300	19.720	42.843	1.000	0.000	-11.429	0.743	312.791	26.800	0.000
9.400	19.718	42.844	1.000	0.027	-11.369	0.805	312.788	26.800	0.000
9.500	19.719	42.845	1.000	0.074	-11.231	0.892	312.787	26.800	0.000
9.600	19.719	42.844	1.000	0.071	-8.688	1.009	312.768	26.800	0.000
9.700	19.719	42.842	1.000	0.098	-5.330	1.239	312.764	26.800	0.000
9.800	19.719	42.844	1.000	0.080	-11.146	1.519	312.745	26.800	0.000
9.900	19.715	42.850	1.000	0.091	-4.231	1.731	312.731	26.800	3.582
10.000	19.715	42.851	1.000	0.170	-10.654	1.988	312.719	26.800	5.532
10.100	19.715	42.853	1.000	0.131	145.877	2.307	312.695	26.800	5.600
10.200	19.715	42.853	1.000	0.150	9.073	2.878	312.662	26.800	5.600
10.300	19.714	42.853	1.000	0.175	539.591	3.428	312.624	26.800	5.996
10.400	19.715	42.852	1.000	0.154	685.157	3.708	312.616	26.800	8.769
10.500	19.715	42.853	1.000	0.285	354.200	4.429	312.582	26.800	12.279
10.600	19.714	42.856	1.000	0.220	1781.573	4.997	312.561	26.800	13.994
10.700	19.713	42.860	1.000	0.105	1226.219	6.058	312.487	26.800	14.792
10.800	19.712	42.860	1.000	0.286	126.417	6.348	312.475	26.800	18.778
10.900	19.713	42.861	1.000	0.309	1264.341	5.901	312.495	26.800	20.390
11.000	19.713	42.863	1.000	0.219	2666.331	6.408	312.472	26.800	21.589
11.100	19.713	42.861	1.000	0.102	1845.175	7.211	312.415	26.800	24.354
11.200	19.713	42.862	1.000	0.291	152.484	6.846	312.418	26.800	25.192
11.300	19.710	42.863	1.000	0.406	1017.543	6.715	312.428	26.800	28.366
11.400	19.710	42.868	1.000	0.394	2760.822	6.302	312.461	26.800	31.561
11.500	19.709	42.869	1.000	0.350	3283.441	7.702	312.395	26.800	34.759
11.600	19.711	42.869	1.000	0.349	3493.236	8.990	312.317	26.800	38.784
11.700	19.709	42.869	1.000	0.349	3636.128	9.436	312.302	26.800	41.188
11.800	19.710	42.869	1.000	0.347	3665.654	9.870	312.283	26.800	45.573
11.900	19.709	42.870	1.000	0.363	3924.857	10.472	312.233	26.800	47.576
12.000	19.711	42.870	1.000	0.392	4284.543	11.332	312.184	26.800	47.997
12.100	19.708	42.875	1.000	0.440	4329.661	11.691	312.171	26.800	49.188
12.200	19.708	42.878	1.000	0.508	4324.233	11.896	312.152	26.800	51.179
12.300	19.708	42.876	1.000	0.603	4460.985	12.677	312.119	26.800	52.781
12.400	19.706	42.878	1.000	0.700	4605.695	13.540	312.066	26.800	55.959
12.500	19.708	42.879	1.000	0.842	4768.960	14.723	311.999	26.800	57.992
12.600	19.707	42.878	1.000	0.990	4984.462	16.495	311.898	26.800	59.194
12.700	19.708	42.880	1.000	1.137	5053.540	17.933	311.820	26.800	59.200
12.800	19.706	42.883	1.000	1.283	5070.996	19.183	311.738	26.800	59.200
12.900	19.703	42.885	1.000	1.427	5090.154	20.470	311.680	26.800	59.200
13.000	19.703	42.886	1.000	1.576	5108.047	21.741	311.608	26.800	59.200
13.100	19.703	42.886	1.000	1.695	5109.063	22.987	311.537	26.800	58.808
13.200	19.702	42.887	1.000	1.841	5092.736	23.994	311.476	26.800	58.800
13.300	19.702	42.889	1.000	1.970	5045.736	24.900	311.427	26.800	58.800
13.400	19.702	42.888	1.000	2.072	4997.103	25.227	311.405	26.800	58.800
13.500	19.702	42.889	1.000	2.212	4946.533	25.906	311.362	26.800	58.800
13.600	19.701	42.893	1.000	2.313	4901.935	26.616	311.312	26.800	58.800
13.700	19.701	42.894	1.000	2.410	4847.327	27.269	311.280	26.800	58.800
13.800	19.701	42.893	1.000	2.510	4799.780	27.809	311.232	26.800	58.800
13.900	19.701	42.893	1.000	2.589	4749.944	28.290	311.192	26.800	58.800
14.000	19.701	42.892	1.000	2.658	4714.646	28.714	311.160	26.800	58.800
14.100	19.701	42.892	1.000	2.751	4676.515	29.084	311.141	26.800	58.800
14.200	19.699	42.897	1.000	2.807	4634.922	29.413	311.123	26.800	58.800
14.300	19.697	42.901	1.000	2.882	4604.362	29.690	311.097	26.800	58.800
14.400	19.698	42.902	1.000	2.948	4552.573	29.893	311.085	26.800	58.800
14.500	19.696	42.902	1.000	3.001	4491.453	30.040	311.074	26.800	59.198
14.600	19.697	42.902	1.000	3.049	4438.269	30.308	311.048	26.800	59.200
14.700	19.697	42.902	1.000	3.097	4401.647	30.515	311.043	26.800	59.200
14.800	19.696	42.903	1.000	3.145	4382.551	30.623	311.027	26.800	59.200
14.900	19.697	42.904	1.000	3.194	4373.346	30.695	311.012	26.800	59.992
15.000	19.698	42.906	1.000	3.246	4386.294	30.951	311.004	26.800	61.158
15.100	19.696	42.907	1.000	3.295	4400.815	31.435	310.969	26.800	62.385
15.200	19.695	42.909	1.000	3.348	4403.825	31.981	310.927	26.800	63.591
15.300	19.695	42.909	1.000	3.418	4457.689	32.704	310.875	26.800	65.192
15.400	19.695	42.910	1.000	3.493	4537.745	33.678	310.833	26.800	66.790
15.500	19.695	42.909	1.000	3.589	4647.441	34.112	310.806	26.800	67.197
15.600	19.695	42.908	1.000	3.688	4709.298	35.314	310.748	26.800	67.597
15.700	19.694	42.914	1.000	3.782	4709.895	36.338	310.689	26.800	68.393
15.800	19.694	42.917	1.000	3.880	4742.582	37.428	310.620	26.800	68.796
15.900	19.694	42.918	1.000	3.977	4751.514	38.609	310.547	26.800	68.800
16.000	19.693	42.918	1.000	4.103	4761.308	39.575	310.491	26.800	68.800
16.100	19.693	42.918	1.000	4.220	4803.166	40.519	310.432	26.800	69.199
16.200	19.693	42.916	1.000	4.324	4809.455	41.396	310.375	26.800	69.200
16.300	19.693	42.917	1.000	4.420	4807.622	42.480	310.303	26.800	69.995
16.400	19.689	42.920	1.000	4.542	4846.387	43.526	310.252	26.800	70.397
16.500	19.689	42.923	1.000	4.660	4904.481	44.752	310.186	26.800	71.591
16.600	19.689	42.924	1.000	4.808	4973.327	45.997	310.098	26.800	71.996
16.700	19.690	42.924	1.000	4.957	5032.830	47.671	309.999	26.800	72.000
16.800	19.689	42.925	1.000	5.084	5025.939	49.313	309.913	26.800	72.000
16.900	19.689	42.925	1.000	5.202	5007.498	50.616	309.838	26.800	72.000
17.000	19.689	42.923	1.000	5.342	5017.869	51.728	309.754	26.800	72.000
17.100	19.689	42.927	1.000	5.487	5027.754	52.969	309.681	26.800	72.000
17.200	19.688	42.931	1.000	5.613	5029.675	54.105	309.628	26.800	72.000
17.300	19.688	42.932	1.000	5.737	5038.444	55.229	309.560	26.800	72.000
17.400	19.686	42.932	1.000	5.879	5048.027	56.371	309.482	26.800	72.000
17.500	19.686	42.931	1.000	6.022	5050.370	57.528	309.404	26.800	72.000
17.600	19.687	42.932	1.000	6.148	5039.547	58.006	309.372	26.800	72.000
17.700	19.688	42.933	1.000	6.279	5008.248	58.850	309.311	26.800	72.000
17.800	19.688	42.934	1.000	6.410	5027.707	60.014	309.233	26.800	72.000
17.900	19.685	42.937	1.000	6.555	5048.906	61.233	309.156	26.800	72.000
18.000	19.684	42.939	1.000	6.674	5037.750	62.443	309.095	26.800	72.000
18.100	19.684	42.941	1.000	6.799	5058.391	63.560	309.032	26.800	72.000
18.200	19.683	42.941	1.000	6.946	5072.331	64.733	308.950	26.800	72.396
18.300	19.684	42.942	1.000	7.089	5041.333	65.933	308.881	26.800	72.400
18.400	19.685	42.941	1.000	7.214	5045.727	67.277	308.801	26.800	72.400
18.500	19.683	42.941	1.000	7.354	5060.206	68.644	308.697	26.800	72.400
18.600	19.682	42.947	1.000	7.481	5064.940	69.853	308.634	26.800	72.400
18.700	19.682	42.948	1.000	7.626	5075.681	70.822	308.575	26.800	72.400
18.800	19.682	42.950	1.000	7.775	5069.908	72.017	308.498	26.800	73.198
18.900	19.683	42.950	1.000	7.925	5084.520	73.372	308.395	26.800	73.200
19.000	19.681	42.949	1.000	8.071	5093.485	74.958	308.299	26.800	73.200
19.100	19.682	42.950	1.000	8.215	5113.371	76.492	308.218	26.800	73.994
19.200	19.682	42.950	1.000	8.362	5154.125	77.965	308.121	26.800	74.000
19.300	19.682	42.952	1.000	8.510	5181.007	79.669	308.024	26.800	74.000
19.400	19.678	42.954	1.000	8.654	5155.456	81.164	307.917	26.800	74.000
19.500	19.677	42.954	1.000	8.818	5138.307	82.463	307.835	26.800	74.000
19.600	19.678	42.956	1.000	8.966	5160.270	83.812	307.760	26.800	74.000
19.700	19.679	42.956	1.000	9.109	5165.360	84.386	307.721	26.800	74.000
19.800	19.677	42.956	1.000	9.259	5179.713	85.395	307.642	26.800	74.000
19.900	19.678	42.957	1.000	9.403	5141.019	86.721	307.566	26.800	74.000
20.000	19.678	42.959	1.000	9.550	5154.614	87.981	307.495	26.800	74.000
20.100	19.676	42.961	1.000	9.698	5161.999	89.389	307.392	26.800	74.000
20.200	19.674	42.963	1.000	9.844	5172.312	90.697	307.311	26.403	74.000
20.300	19.673	42.964	1.000	9.991	5163.392	92.037	307.232	26.400	74.000
20.400	19.674	42.964	1.000	10.162	5144.973	93.387	307.130	26.400	74.000
20.500	19.673	42.965	1.000	10.312	5155.786	94.678	307.043	26.400	74.000
20.600	19.673	42.965	1.000	10.461	5154.221	95.919	306.971	26.400	74.000
20.700	19.673	42.966	1.000	10.606	5161.620	97.283	306.885	26.400	74.000
20.800	19.670	42.967	1.000	10.750	5138.299	98.494	306.808	26.400	74.000
20.900	19.671	42.969	1.000	10.899	5145.365	99.717	306.728	26.400	74.000
21.000	19.671	42.970	1.000	11.045	5167.678	101.052	306.636	26.400	74.000
21.100	19.671	42.971	1.000	11.193	5166.098	102.375	306.554	26.400	74.000
21.200	19.670	42.971	1.000	11.337	5133.578	103.631	306.477	26.400	74.000
21.300	19.672	42.970	1.000	11.503	5148.195	104.957	306.383	26.400	74.791
21.400	19.670	42.973	1.000	11.650	5177.157	106.545	306.284	26.400	75.195
21.500	19.670	42.974	1.000	11.796	5210.496	108.674	306.146	26.400	75.200
21.600	19.668	42.976	1.000	11.971	5207.529	110.617	306.021	26.400	75.200
21.700	19.666	42.979	1.000	12.135	5225.504	112.155	305.926	26.400	75.200
21.800	19.667	42.977	1.000	12.291	5245.501	112.810	305.882	26.400	75.200
21.900	19.667	42.978	1.000	12.439	5219.760	113.906	305.811	26.400	75.200
22.000	19.667	42.978	1.000	12.596	5208.938	115.312	305.731	26.400	75.200
22.100	19.668	42.978	1.000	12.763	5231.329	116.725	305.631	26.400	75.200
22.200	19.666	42.982	1.000	12.910	5218.406	118.162	305.526	26.400	75.200
22.300	19.666	42.985	1.000	13.080	5198.990	119.691	305.425	26.400	75.200
22.400	19.664	42.985	1.000	13.221	5232.867	121.050	305.341	26.400	75.200
22.500	19.665	42.986	1.000	13.376	5241.612	122.505	305.247	26.400	75.200
22.600	19.665	42.986	1.000	13.541	5199.258	123.802	305.164	26.400	75.200
22.700	19.667	42.986	1.000	13.716	5217.831	125.248	305.064	26.400	75.200
22.800	19.665	42.986	1.000	13.869	5231.506	126.795	304.970	26.400	75.200
22.900	19.664	42.987	1.000	14.009	5188.790	127.979	304.896	26.400	75.200
23.000	19.663	42.990	1.000	14.176	5215.151	129.330	304.798	26.400	75.200
23.100	19.660	42.991	1.000	14.329	5249.338	130.671	304.693	26.400	75.596
23.200	19.661	42.992	1.000	14.496	5219.500	132.350	304.574	26.400	75.600
23.300	19.662	42.993	1.000	14.651	5231.628	134.169	304.464	26.400	75.600
23.400	19.660	42.991	1.000	14.811	5249.764	135.733	304.366	26.400	75.999
23.500	19.661	42.992	1.000	14.987	5231.272	137.502	304.246	26.400	76.398
23.600	19.660	42.992	1.000	15.133	5270.234	139.344	304.114	26.400	76.798
23.700	19.659	42.996	1.000	15.305	5316.963	141.472	303.986	26.400	76.800
23.800	19.658	42.998	1.000	15.473	5300.520	143.663	303.862	26.400	77.197
23.900	19.658	42.999	1.000	15.666	5320.341	144.633	303.813	26.400	77.596
24.000	19.659	42.998	1.000	15.819	5345.206	146.104	303.713	26.400	77.996
24.100	19.658	42.999	1.000	16.013	5370.658	148.685	303.552	26.400	78.395
24.200	19.660	42.999	1.000	16.195	5421.423	151.187	303.390	26.400	79.173
24.300	19.659	42.999	1.000	16.388	5435.854	153.726	303.233	26.400	79.590
24.400	19.657	43.003	1.000	16.579	5465.732	156.616	303.046	26.400	79.990
24.500	19.656	43.004	1.000	16.779	5493.332	159.431	302.882	26.400	80.000
24.600	19.655	43.005	1.000	16.973	5494.020	162.380	302.695	26.400	80.000
24.700	19.654	43.005	1.000	17.167	5522.752	164.735	302.535	26.400	80.000
24.800	19.654	43.005	1.000	17.364	5520.345	166.600	302.411	26.400	80.000
24.900	19.655	43.006	1.000	17.562	5504.755	168.475	302.289	26.400	80.000
25.000	19.655	43.006	1.000	17.752	5502.232	170.193	302.170	26.400	80.396
25.100	19.652	43.008	1.000	17.950	5502.112	172.139	302.032	26.400	80.400
25.200	19.651	43.009	1.000	18.146	5538.579	174.453	301.890	26.400	80.400
25.300	19.650	43.011	1.000	18.336	5527.806	176.485	301.756	26.400	80.400
25.400	19.650	43.011	1.000	18.534	5521.983	178.222	301.627	26.400	80.400
25.500	19.650	43.012	1.000	18.728	5508.883	180.259	301.482	26.400	80.400
25.600	19.650	43.012	1.000	18.921	5523.229	182.449	301.339	26.400	80.400
25.700	19.650	43.011	1.000	19.116	5558.982	184.582	301.190	26.400	80.400
25.800	19.648	43.012	1.000	19.311	5544.494	186.553	301.049	26.400	80.400
25.900	19.643	43.017	1.000	19.507	5529.570	188.550	300.925	26.400	80.793
26.000	19.643	43.017	1.000	19.702	5516.197	189.501	300.870	26.400	80.800
26.100	19.642	43.018	1.000	19.897	5547.119	190.940	300.787	26.400	81.597
26.200	19.643	43.019	1.000	20.092	5566.332	193.416	300.625	26.400	81.988
26.300	19.642	43.017	1.000	20.304	5574.407	195.943	300.467	26.400	82.790
26.400	19.642	43.017	1.000	20.532	5568.660	198.632	300.287	26.400	83.197
26.500	19.643	43.018	1.000	20.731	5609.010	201.566	300.083	26.400	85.180
26.600	19.636	43.024	1.000	20.943	5658.055	204.786	299.860	26.400	86.394
26.700	19.635	43.024	1.000	21.166	5705.635	209.128	299.597	26.400	87.193
26.800	19.634	43.025	1.000	21.398	5707.412	213.222	299.358	26.400	87.595
26.900	19.634	43.025	1.000	21.622	5741.908	216.772	299.128	26.400	87.600
27.000	19.634	43.026	1.000	21.846	5770.288	220.158	298.914	26.400	87.600
27.100	19.635	43.025	1.000	22.064	5768.272	222.317	298.746	26.400	87.600
27.200	19.634	43.026	1.000	22.286	5736.473	224.681	298.603	26.004	87.600
27.300	19.634	43.027	1.000	22.531	5751.779	227.124	298.425	26.000	87.600
27.400	19.633	43.025	1.000	22.744	5775.057	229.499	298.262	26.000	87.600
27.500	19.635	43.025	1.000	22.968	5764.082	232.308	298.077	26.000	87.600
27.600	19.632	43.027	1.000	23.186	5743.643	234.433	297.925	26.000	87.600
27.700	19.627	43.028	1.000	23.408	5757.198	236.966	297.734	26.000	87.600
27.800	19.624	43.031	1.000	23.650	5782.072	239.583	297.577	26.000	87.600
27.900	19.624	43.032	1.000	23.850	5752.085	241.777	297.430	26.000	87.600
28.000	19.624	43.032	1.000	24.093	5721.714	242.999	297.325	26.000	87.600
28.100	19.624	43.032	1.000	24.289	5708.162	243.237	297.305	26.000	87.600
28.200	19.624	43.033	1.000	24.486	5664.129	243.210	297.286	26.000	87.600
28.300	19.624	43.033	1.000	24.686	5601.683	243.522	297.233	26.000	87.600
28.400	19.621	43.035	1.000	24.884	5565.626	242.816	297.227	26.000	87.600
28.500	19.618	43.038	1.000	25.058	5554.418	243.221	297.186	26.000	87.600
28.600	19.616	43.038	1.000	25.232	5483.618	242.667	297.184	26.000	87.600
28.700	19.616	43.038	1.000	25.422	5434.704	242.712	297.132	26.000	87.600
28.800	19.617	43.040	1.000	25.576	5434.946	242.793	297.108	26.000	87.996
28.900	19.615	43.038	1.000	25.760	5392.189	242.419	297.077	26.000	88.000
29.000	19.616	43.039	1.000	25.917	5335.392	242.728	297.049	26.000	88.395
29.100	19.611	43.040	1.000	26.060	5317.943	242.878	297.007	26.000	88.400
29.200	19.605	43.044	1.000	26.229	5308.758	242.205	296.998	26.000	88.400
29.300	19.601	43.044	1.000	26.381	5251.120	242.303	296.979	26.000	88.400
29.400	19.600	43.044	1.000	26.526	5219.099	242.820	296.909	26.000	88.400
29.500	19.600	43.044	1.000	26.676	5227.425	242.112	296.912	26.000	88.400
29.600	19.600	43.044	1.000	26.823	5170.646	242.124	296.901	26.000	88.400
29.700	19.600	43.045	1.000	26.968	5135.323	242.712	296.837	26.000	88.400
29.800	19.598	43.046	1.000	27.091	5148.585	241.592	296.856	26.000	88.796
29.900	19.592	43.050	1.000	27.218	5101.417	242.089	296.810	26.000	88.800
30.000	19.588	43.052	1.000	27.360	5059.951	242.491	296.745	26.000	89.195
30.100	19.585	43.053	1.000	27.487	5079.244	242.130	296.749	26.000	89.997
30.200	19.586	43.052	1.000	27.606	5048.713	242.108	296.731	26.000	90.782
30.300	19.586	43.055	1.000	27.707	4996.255	242.338	296.712	26.000	91.197
30.400	19.586	43.054	1.000	27.846	5013.094	242.587	296.668	26.000	91.994
30.500	19.584	43.054	1.000	27.948	4982.209	242.101	296.664	26.000	92.397
30.600	19.575	43.059	1.000	28.047	4943.498	242.124	296.638	26.000	92.796
30.700	19.571	43.061	1.000	28.155	4943.491	242.530	296.593	26.000	92.800
30.800	19.570	43.064	1.000	28.280	4926.328	242.312	296.566	26.000	93.195
30.900	19.569	43.062	1.000	28.384	4888.182	242.005	296.566	26.000	93.200
31.000	19.570	43.062	1.000	28.481	4896.752	242.276	296.510	26.000	93.598
31.100	19.569	43.063	1.000	28.580	4887.469	242.700	296.469	26.000	94.793
31.200	19.567	43.062	1.000	28.676	4836.887	242.005	296.487	26.000	96.787
31.300	19.561	43.064	1.000	28.775	4840.130	242.146	296.459	26.000	98.387
31.400	19.556	43.069	1.000	28.871	4826.037	242.223	296.430	26.000	98.788
31.500	19.553	43.070	1.000	28.969	4787.157	242.199	296.395	25.614	99.186
31.600	19.553	43.070	1.000	29.068	4802.357	242.075	296.392	25.600	99.991
31.700	19.553	43.070	1.000	29.166	4788.991	242.459	296.329	25.600	100.000
31.800	19.552	43.070	1.000	29.247	4741.921	242.474	296.315	25.600	100.000
31.900	19.553	43.070	1.000	29.315	4758.587	241.819	296.315	25.600	100.000
32.000	19.545	43.072	1.000	29.410	4747.393	241.891	296.304	25.600	100.000
32.100	19.537	43.077	1.000	29.489	4700.845	241.775	296.278	25.600	100.000
32.200	19.533	43.080	1.000	29.560	4724.076	241.820	296.255	25.600	100.000
32.300	19.530	43.081	1.000	29.654	4697.412	241.819	296.238	25.600	100.000
32.400	19.531	43.080	1.000	29.734	4647.932	241.076	296.261	25.600	100.000
32.500	19.531	43.080	1.000	29.807	4686.787	241.290	296.229	25.600	100.000
32.600	19.533	43.080	1.000	29.857	4657.151	241.249	296.225	25.600	100.000
32.700	19.527	43.081	1.000	29.950	4617.166	241.201	296.201	25.600	100.000
32.800	19.518	43.089	1.000	30.084	4658.079	240.958	296.156	25.600	100.000
32.900	19.512	43.091	1.000	30.322	5000.248	242.215	296.047	25.600	100.000
33.000	19.511	43.093	1.000	30.544	5623.655	287.623	293.593	25.600	100.000
33.100	19.508	43.094	1.000	30.742	5694.195	301.990	292.768	25.600	100.000
33.200	19.509	43.094	1.000	30.937	5525.473	303.191	292.662	25.600	100.000
33.300	19.508	43.093	1.000	31.087	5517.752	303.314	292.613	25.600	100.000
33.400	19.506	43.095	1.000	31.272	5564.834	302.900	292.580	25.600	100.000
33.500	19.495	43.102	1.000	31.451	5449.052	303.104	292.519	25.600	100.000
33.600	19.489	43.109	1.000	31.621	5429.429	301.748	292.534	25.600	100.000
33.700	19.486	43.111	1.000	31.796	5443.145	301.944	292.486	25.600	100.000
33.800	19.486	43.111	1.000	31.961	5365.280	302.469	292.435	25.600	100.000
33.900	19.487	43.111	1.000	32.111	5371.122	302.812	292.378	25.600	100.000
34.000	19.487	43.111	1.000	32.284	5343.895	302.777	292.323	25.600	100.000
34.100	19.486	43.111	1.000	32.444	5308.417	302.458	292.310	25.600	100.000
34.200	19.476	43.117	1.000	32.597	5312.721	302.592	292.271	25.600	100.000
34.300	19.465	43.123	1.000	32.744	5253.323	302.990	292.194	25.600	100.000
34.400	19.462	43.126	1.000	32.893	5249.118	303.090	292.181	25.600	100.000
34.500	19.460	43.128	1.000	33.039	5233.813	302.712	292.171	25.600	100.000
34.600	19.459	43.129	1.000	33.169	5173.102	302.806	292.135	25.600	100.000
34.700	19.459	43.128	1.000	33.316	5208.997	302.498	292.110	25.600	100.000
34.800	19.459	43.127	1.000	33.459	5162.981	302.393	292.087	25.600	100.000
34.900	19.449	43.132	1.000	33.588	5128.413	302.923	292.036	25.600	100.000
35.000	19.440	43.141	1.000	33.708	5139.603	302.609	292.002	25.600	100.000
35.100	19.436	43.144	1.000	33.857	5073.063	302.681	291.968	25.600	100.000
35.200	19.434	43.145	1.000	33.952	5088.189	302.578	291.933	25.204	100.000
35.300	19.434	43.145	1.000	34.101	5056.346	301.834	291.946	25.200	100.000
35.400	19.434	43.148	1.000	34.200	5029.018	301.473	291.931	25.200	100.000
35.500	19.433	43.148	1.000	34.340	5055.416	302.050	291.867	25.200	100.000
35.600	19.429	43.148	1.000	34.443	4994.961	302.406	291.818	25.200	100.000
35.700	19.413	43.159	1.000	34.539	5004.925	302.333	291.805	25.200	100.000
35.800	19.408	43.165	1.000	34.683	4973.352	302.012	291.781	25.200	100.000
35.900	19.406	43.167	1.000	34.782	4949.011	302.415	291.736	25.200	100.000
36.000	19.405	43.168	1.000	34.885	4954.051	301.758	291.724	25.200	100.000
36.100	19.406	43.168	1.000	34.980	4904.273	301.840	291.706	25.200	100.000
36.200	19.404	43.168	1.000	35.079	4940.055	302.219	291.640	25.200	100.000
36.300	19.402	43.169	1.000	35.192	4901.110	301.999	291.626	25.200	100.000
36.400	19.389	43.183	1.000	35.288	4878.543	302.144	291.582	25.200	100.000
36.500	19.381	43.191	1.000	35.415	4892.928	302.208	291.569	25.200	100.000
36.600	19.379	43.193	1.000	35.494	4833.310	302.627	291.520	25.200	100.000
36.700	19.378	43.193	1.000	35.590	4859.960	302.293	291.520	25.200	100.000
36.800	19.378	43.194	1.000	35.663	4817.756	301.923	291.498	25.200	100.000
36.900	19.378	43.192	1.000	35.760	4825.045	301.684	291.464	25.200	100.000
37.000	19.378	43.193	1.000	35.858	4812.297	301.632	291.442	25.200	100.000
37.100	19.364	43.202	1.000	35.954	4773.583	301.722	291.423	25.200	100.000
37.200	19.353	43.214	1.000	36.028	4805.684	301.788	291.367	25.200	100.000
37.300	19.349	43.219	1.000	36.126	4747.501	302.184	291.319	25.200	100.000
37.400	19.349	43.220	1.000	36.196	4771.796	301.785	291.311	25.200	100.000
37.500	19.347	43.220	1.000	36.292	4749.876	302.028	291.272	25.200	100.000
37.600	19.347	43.220	1.000	36.344	4728.741	301.655	291.262	25.200	100.000
37.700	19.346	43.220	1.000	36.440	4744.657	301.869	291.224	25.200	100.000
37.800	19.338	43.229	1.000	36.536	4706.002	302.677	291.156	25.200	100.000
37.900	19.327	43.243	1.000	36.587	4725.487	301.771	291.164	25.200	100.000
38.000	19.324	43.248	1.000	36.682	4681.571	301.896	291.148	25.200	100.000
38.100	19.323	43.249	1.000	36.733	4707.927	301.971	291.125	25.200	100.000
38.200	19.323	43.249	1.000	36.827	4687.964	302.148	291.085	25.200	100.000
38.300	19.321	43.249	1.000	36.880	4662.509	302.013	291.065	25.200	100.000
38.400	19.323	43.249	1.000	36.975	4682.443	302.110	291.011	25.200	100.000
38.500	19.318	43.254	1.000	37.026	4629.026	302.057	290.998	25.200	100.000
38.600	19.304	43.270	1.000	37.101	4665.682	302.045	290.981	24.803	100.000
38.700	19.299	43.277	1.000	37.171	4624.981	302.100	290.951	24.800	100.000
38.800	19.296	43.281	1.000	37.221	4643.375	302.488	290.914	24.800	100.000
38.900	19.294	43.281	1.000	37.296	4614.339	302.073	290.901	24.800	100.000
39.000	19.295	43.280	1.000	37.363	4609.132	301.875	290.874	24.800	100.000
39.100	19.294	43.280	1.000	37.412	4623.276	302.374	290.836	24.800	100.000
39.200	19.291	43.283	1.000	37.465	4578.941	302.225	290.814	24.800	100.000
39.300	19.279	43.302	1.000	37.547	4603.190	301.963	290.804	24.800	100.000
39.400	19.273	43.313	1.000	37.616	4559.569	301.879	290.770	24.800	100.000
39.500	19.270	43.317	1.000	37.666	4593.628	302.053	290.748	24.800	100.000
39.600	19.269	43.317	1.000	37.717	4557.111	301.919	290.729	24.800	100.000
39.700	19.268	43.318	1.000	37.793	4567.510	302.100	290.693	24.800	100.000
39.800	19.268	43.320	1.000	37.842	4562.637	302.175	290.674	24.800	100.000
39.900	19.268	43.318	1.000	37.891	4544.788	302.454	290.627	24.800	100.000
40.000	19.256	43.331	1.000	37.959	4559.786	302.409	290.598	24.800	100.000
40.100	19.248	43.347	1.000	38.007	4511.853	302.191	290.575	24.800	100.000
40.200	19.243	43.354	1.000	38.057	4546.085	302.163	290.557	24.800	100.000
40.300	19.242	43.356	1.000	38.108	4512.629	302.487	290.512	24.800	100.000
40.400	19.243	43.357	1.000	38.157	4535.663	302.570	290.485	24.800	100.000
40.500	19.242	43.356	1.000	38.205	4506.165	302.274	290.468	24.800	100.000
40.600	19.242	43.358	1.000	38.252	4505.492	302.234	290.456	24.800	100.000
40.700	19.236	43.369	1.000	38.300	4505.861	302.246	290.447	24.800	100.000
40.800	19.224	43.387	1.000	38.352	4487.394	302.077	290.445	24.800	100.000
40.900	19.221	43.393	1.000	38.399	4501.039	302.506	290.389	24.800	100.000
41.000	19.219	43.394	1.000	38.448	4449.707	302.156	290.392	24.800	100.000
41.100	19.219	43.397	1.000	38.479	4491.314	301.612	290.389	24.800	100.000
41.200	19.218	43.397	1.000	38.527	4450.354	301.774	290.353	24.800	100.000
41.300	19.220	43.397	1.000	38.575	4480.704	301.869	290.316	24.800	100.000
41.400	19.218	43.401	1.000	38.625	4448.466	302.041	290.294	24.800	100.000
41.500	19.208	43.421	1.000	38.651	4448.247	301.556	290.284	24.800	100.000
41.600	19.205	43.435	1.000	38.694	4445.749	301.535	290.267	24.800	100.000
41.700	19.203	43.438	1.000	38.745	4440.022	301.642	290.248	24.800	100.000
41.800	19.203	43.440	1.000	38.790	4450.864	301.877	290.203	24.800	100.000
41.900	19.203	43.439	1.000	38.821	4424.728	302.382	290.150	24.800	100.000
42.000	19.203	43.440	1.000	38.867	4456.594	302.424	290.117	24.402	100.000
42.100	19.200	43.442	1.000	38.894	4404.865	302.087	290.112	24.400	100.000
42.200	19.190	43.464	1.000	38.919	4426.332	301.527	290.115	24.400	100.000
42.300	19.187	43.476	1.000	38.963	4396.665	301.551	290.094	24.400	100.000
42.400	19.185	43.482	1.000	39.015	4425.237	301.706	290.073	24.400	100.000
42.500	19.185	43.484	1.000	39.062	4404.377	302.073	290.032	24.400	100.000
42.600	19.185	43.485	1.000	39.091	4420.772	302.443	289.974	24.400	100.000
42.700	19.186	43.484	1.000	39.116	4411.175	302.599	289.946	24.400	100.000
42.800	19.186	43.485	1.000	39.161	4394.644	302.628	289.932	24.400	100.000
42.900	19.179	43.499	1.000	39.186	4405.834	302.458	289.930	24.400	100.000
43.000	19.174	43.520	1.000	39.214	4374.620	302.233	289.915	24.400	100.000
43.100	19.172	43.526	1.000	39.261	4400.451	301.753	289.895	24.400	100.000
43.200	19.170	43.529	1.000	39.287	4363.429	301.970	289.879	24.400	100.000
43.300	19.172	43.530	1.000	39.312	4395.841	302.092	289.851	24.400	100.000
43.400	19.173	43.531	1.000	39.358	4361.898	302.599	289.804	24.400	100.000
43.500	19.172	43.531	1.000	39.385	4392.853	302.919	289.756	24.400	100.000
43.600	19.171	43.544	1.000	39.408	4360.519	302.949	289.738	24.400	100.000
43.700	19.166	43.563	1.000	39.455	4371.861	302.321	289.733	24.400	100.000
43.800	19.164	43.572	1.000	39.477	4365.558	302.494	289.704	24.400	100.000
43.900	19.164	43.575	1.000	39.506	4356.815	302.365	289.697	24.400	100.000
44.000	19.163	43.576	1.000	39.527	4353.964	301.934	289.700	24.400	100.000
44.100	19.164	43.576	1.000	39.553	4339.361	302.015	289.682	24.400	100.000
44.200	19.164	43.576	1.000	39.601	4361.717	302.133	289.659	24.400	100.000
44.300	19.163	43.581	1.000	39.623	4337.087	302.565	289.617	24.400	100.000
44.400	19.163	43.603	1.000	39.651	4367.356	302.904	289.571	24.400	100.000
44.500	19.161	43.614	1.000	39.672	4325.339	302.870	289.552	24.400	100.000
44.600	19.162	43.620	1.000	39.700	4359.528	302.503	289.543	24.400	100.000
44.700	19.163	43.621	1.000	39.720	4320.981	302.536	289.505	24.400	100.000
44.800	19.161	43.621	1.000	39.749	4343.307	302.149	289.513	24.400	100.000
44.900	19.161	43.621	1.000	39.798	4313.140	302.026	289.509	24.400	100.000
45.000	19.162	43.624	1.000	39.801	4335.700	302.326	289.469	24.400	100.000
45.100	19.163	43.645	1.000	39.842	4325.601	302.545	289.443	24.400	100.000
45.200	19.164	43.660	1.000	39.848	4326.601	302.914	289.403	24.400	100.000
45.300	19.164	43.663	1.000	39.895	4326.910	302.853	289.381	24.400	100.000
45.400	19.164	43.667	1.000	39.897	4321.648	303.072	289.343	24.005	100.000
45.500	19.164	43.667	1.000	39.914	4333.249	303.348	289.326	24.000	100.000
45.600	19.164	43.667	1.000	39.943	4304.862	303.142	289.315	24.000	100.000
45.700	19.164	43.666	1.000	39.965	4323.009	302.925	289.292	24.000	100.000
45.800	19.167	43.682	1.000	39.993	4289.965	302.957	289.271	24.000	100.000
45.900	19.170	43.699	1.000	40.012	4323.859	302.815	289.266	24.000	100.000
46.000	19.170	43.705	1.000	40.040	4283.820	302.729	289.254	24.000	100.000
46.100	19.170	43.707	1.000	40.043	4311.755	302.547	289.239	24.000	100.000
46.200	19.171	43.708	1.000	40.088	4279.002	302.517	289.220	24.000	100.000
46.300	19.170	43.706	1.000	40.092	4309.202	302.803	289.180	24.000	100.000
46.400	19.170	43.709	1.000	40.136	4284.223	302.791	289.160	24.000	100.000
46.500	19.173	43.720	1.000	40.140	4303.363	302.815	289.143	24.000	100.000
46.600	19.179	43.740	1.000	40.161	4290.116	303.212	289.097	24.000	100.000
46.700	19.180	43.745	1.000	40.189	4301.239	303.367	289.069	24.000	100.000
46.800	19.181	43.748	1.000	40.191	4296.356	303.595	289.044	24.000	100.000
46.900	19.181	43.750	1.000	40.232	4281.930	303.172	289.046	24.000	100.000
47.000	19.181	43.750	1.000	40.237	4294.968	303.010	289.052	24.000	100.000
47.100	19.180	43.749	1.000	40.256	4268.305	303.232	289.020	24.000	100.000
47.200	19.182	43.753	1.000	40.286	4293.182	303.287	288.986	24.000	100.000
47.300	19.192	43.771	1.000	40.287	4260.592	303.286	288.982	24.000	100.000
47.400	19.195	43.781	1.000	40.306	4284.034	302.890	288.980	24.000	100.000
47.500	19.196	43.786	1.000	40.332	4249.271	302.603	288.973	24.000	100.000
47.600	19.197	43.784	1.000	40.335	4278.004	302.465	288.959	24.000	100.000
47.700	19.198	43.784	1.000	40.353	4246.559	302.742	288.932	24.000	100.000
47.800	19.196	43.785	1.000	40.383	4279.092	302.874	288.907	24.000	100.000
47.900	19.199	43.789	1.000	40.386	4253.437	303.146	288.858	24.000	100.000
48.000	19.209	43.804	1.000	40.407	4279.400	303.194	288.828	24.000	100.000
48.100	19.215	43.814	1.000	40.430	4256.567	303.300	288.803	24.000	100.000
48.200	19.217	43.816	1.000	40.433	4270.553	303.378	288.796	24.000	100.000
48.300	19.217	43.817	1.000	40.479	4263.072	303.672	288.767	24.000	100.000
48.400	19.218	43.817	1.000	40.483	4267.445	303.835	288.735	24.000	100.000
48.500	19.216	43.816	1.000	40.483	4262.004	303.724	288.721	24.000	100.000
48.600	19.217	43.818	1.000	40.525	4252.933	303.671	288.704	24.000	100.000
48.700	19.225	43.826	1.000	40.529	4261.522	303.375	288.691	24.000	100.000
48.800	19.234	43.838	1.000	40.529	4242.008	303.049	288.688	24.000	100.000
48.900	19.239	43.842	1.000	40.529	4259.821	303.189	288.676	23.605	100.000
49.000	19.240	43.842	1.000	40.575	4225.537	302.832	288.669	23.600	100.000
49.100	19.241	43.845	1.000	40.581	4250.359	302.668	288.665	23.600	100.000
49.200	19.241	43.845	1.000	40.579	4221.558	302.847	288.642	23.600	100.000
49.300	19.242	43.847	1.000	40.600	4246.741	302.719	288.633	23.600	100.000
49.400	19.249	43.852	1.000	40.625	4215.748	302.617	288.628	23.600	100.000
49.500	19.260	43.861	1.000	40.627	4246.561	302.633	288.614	23.600	100.000
49.600	19.267	43.865	1.000	40.628	4218.189	302.848	288.573	23.600	100.000
49.700	19.268	43.866	1.000	40.629	4252.395	302.965	288.542	23.600	100.000
49.800	19.268	43.865	1.000	40.675	4219.699	303.048	288.519	23.600	100.000
49.900	19.268	43.865	1.000	40.678	4243.694	303.168	288.513	23.600	100.000
50.000	19.268	43.866	1.000	40.678	4225.161	303.346	288.471	23.600	100.000
50.100	19.272	43.870	1.000	40.679	4244.264	303.473	288.446	23.600	100.000
50.200	19.288	43.876	1.000	40.723	4227.052	303.615	288.426	23.600	100.000
50.300	19.296	43.880	1.000	40.727	4235.371	303.666	288.417	23.600	100.000
50.400	19.300	43.881	1.000	40.728	4234.174	303.688	288.399	23.600	100.000
50.500	19.301	43.881	1.000	40.773	4232.283	303.730	288.379	23.600	100.000
50.600	19.300	43.881	1.000	40.778	4241.051	304.040	288.334	23.600	100.000
50.700	19.300	43.881	1.000	40.775	4219.371	303.901	288.327	23.600	100.000
50.800	19.304	43.881	1.000	40.776	4226.956	303.261	288.345	23.600	100.000
50.900	19.322	43.887	1.000	40.776	4203.242	302.720	288.361	23.600	100.000
51.000	19.332	43.890	1.000	40.795	4219.252	302.615	288.352	23.600	100.000
51.100	19.335	43.892	1.000	40.822	4199.593	302.771	288.330	23.600	100.000
51.200	19.337	43.892	1.000	40.823	4226.315	302.873	288.315	23.600	100.000
51.300	19.336	43.893	1.000	40.822	4194.169	302.927	288.289	23.600	100.000
51.400	19.336	43.892	1.000	40.825	4225.176	302.914	288.280	23.600	100.000
51.500	19.337	43.892	1.000	40.842	4190.650	302.972	288.263	23.600	100.000
51.600	19.351	43.894	1.000	40.870	4223.936	302.932	288.246	23.600	100.000
51.700	19.367	43.895	1.000	40.874	4184.950	302.615	288.230	23.600	100.000
51.800	19.373	43.897	1.000	40.875	4220.276	302.770	288.213	23.600	100.000
51.900	19.374	43.895	1.000	40.873	4187.824	302.893	288.188	23.600	100.000
52.000	19.374	43.897	1.000	40.875	4214.587	302.953	288.179	23.600	100.000
52.100	19.376	43.895	1.000	40.891	4193.423	302.951	288.166	23.600	100.000
52.200	19.375	43.897	1.000	40.918	4207.682	302.747	288.163	23.600	100.000
52.300	19.389	43.896	1.000	40.922	4197.471	302.827	288.142	23.204	100.000
52.400	19.407	43.894	1.000	40.922	4203.012	303.120	288.105	23.200	100.000
52.500	19.415	43.894	1.000	40.923	4201.888	303.194	288.083	23.200	100.000
52.600	19.417	43.894	1.000	40.923	4198.816	303.220	288.065	23.200	100.000
52.700	19.417	43.894	1.000	40.939	4206.257	303.130	288.056	23.200	100.000
52.800	19.417	43.893	1.000	40.970	4194.335	303.218	288.025	23.200	100.000
52.900	19.417	43.894	1.000	40.970	4205.091	303.411	287.991	23.200	100.000
53.000	19.422	43.890	1.000	40.971	4194.264	303.509	287.973	23.200	100.000
53.100	19.445	43.886	1.000	40.970	4214.496	303.687	287.943	23.200	100.000
53.200	19.458	43.884	1.000	40.972	4189.197	303.800	287.928	23.200	100.000
53.300	19.461	43.884	1.000	40.988	4211.341	303.809	287.930	23.200	100.000
53.400	19.462	43.885	1.000	40.991	4182.612	303.643	287.925	23.200	100.000
53.500	19.462	43.883	1.000	41.019	4214.152	303.671	287.904	23.200	100.000
53.600	19.462	43.884	1.000	41.022	4178.664	303.744	287.885	23.200	100.000
53.700	19.467	43.881	1.000	41.021	4213.514	303.962	287.856	23.200	100.000
53.800	19.491	43.873	1.000	41.019	4181.768	304.009	287.832	23.200	100.000
53.900	19.503	43.869	1.000	41.038	4211.920	303.991	287.821	23.200	100.000
54.000	19.507	43.869	1.000	41.041	4177.169	304.045	287.810	23.200	100.000
54.100	19.508	43.870	1.000	41.067	4207.491	303.827	287.801	23.200	100.000
54.200	19.510	43.868	1.000	41.071	4181.719	303.804	287.778	23.200	100.000
54.300	19.509	43.868	1.000	41.069	4200.918	303.891	287.755	23.200	100.000
54.400	19.511	43.868	1.000	41.069	4182.672	303.680	287.743	23.200	100.000
54.500	19.528	43.860	1.000	41.070	4189.297	303.605	287.743	23.200	100.000
54.600	19.547	43.849	1.000	41.069	4180.971	303.669	287.737	23.200	100.000
54.700	19.552	43.847	1.000	41.072	4197.519	304.056	287.693	23.200	100.000
54.800	19.556	43.845	1.000	41.089	4187.682	303.868	287.683	23.200	100.000
54.900	19.557	43.845	1.000	41.116	4180.720	303.878	287.665	23.200	100.000
55.000	19.555	43.846	1.000	41.118	4190.385	304.052	287.629	23.200	100.000
55.100	19.556	43.845	1.000	41.117	4180.005	303.940	287.619	23.200	100.000
55.200	19.573	43.836	1.000	41.118	4183.766	303.616	287.638	23.200	100.000
55.300	19.596	43.823	1.000	41.118	4172.856	303.867	287.611	23.200	100.000
55.400	19.603	43.817	1.000	41.118	4193.865	304.124	287.596	23.200	100.000
55.500	19.606	43.815	1.000	41.119	4170.675	303.811	287.587	23.200	100.000
55.600	19.608	43.816	1.000	41.119	4192.791	303.626	287.581	23.200	100.000
55.700	19.607	43.816	1.000	41.137	4159.987	303.545	287.568	22.802	100.000
55.800	19.608	43.817	1.000	41.165	4194.124	303.544	287.547	22.800	100.000
55.900	19.612	43.811	1.000	41.168	4163.027	303.810	287.516	22.800	100.000
56.000	19.638	43.792	1.000	41.167	4177.144	303.710	287.512	22.800	100.000
56.100	19.651	43.784	1.000	41.166	4151.115	303.689	287.495	22.800	100.000
56.200	19.654	43.780	1.000	41.167	4190.277	303.623	287.490	22.800	100.000
56.300	19.656	43.780	1.000	41.168	4162.365	303.909	287.451	22.800	100.000
56.400	19.656	43.779	1.000	41.168	4192.536	303.872	287.430	22.800	100.000
56.500	19.656	43.781	1.000	41.167	4164.397	303.828	287.420	22.800	100.000
56.600	19.660	43.777	1.000	41.168	4189.361	303.938	287.415	22.800	100.000
56.700	19.684	43.757	1.000	41.168	4165.560	304.001	287.402	22.800	100.000
56.800	19.698	43.744	1.000	41.211	4191.156	304.040	287.375	22.800	100.000
56.900	19.702	43.739	1.000	41.216	4166.279	303.987	287.367	22.800	100.000
57.000	19.704	43.737	1.000	41.217	4182.253	304.021	287.353	22.800	100.000
57.100	19.703	43.737	1.000	41.217	4168.373	304.115	287.330	22.800	100.000
57.200	19.704	43.737	1.000	41.216	4185.720	304.208	287.301	22.800	100.000
57.300	19.705	43.735	1.000	41.216	4176.138	304.340	287.290	22.800	100.000
57.400	19.721	43.720	1.000	41.216	4176.808	304.377	287.275	22.800	100.000
57.500	19.741	43.701	1.000	41.215	4175.054	304.357	287.265	22.800	100.000
57.600	19.749	43.693	1.000	41.216	4174.860	304.249	287.261	22.800	100.000
57.700	19.751	43.691	1.000	41.216	4184.659	304.581	287.227	22.800	100.000
57.800	19.753	43.690	1.000	41.236	4172.916	304.785	287.194	22.800	100.000
57.900	19.753	43.689	1.000	41.264	4183.598	304.735	287.191	22.800	100.000
58.000	19.753	43.687	1.000	41.265	4172.675	304.597	287.181	22.800	100.000
58.100	19.768	43.672	1.000	41.265	4188.155	304.827	287.154	22.800	100.000
58.200	19.790	43.650	1.000	41.265	4163.654	304.680	287.150	22.800	100.000
58.300	19.798	43.641	1.000	41.267	4187.442	304.634	287.129	22.800	100.000
58.400	19.800	43.638	1.000	41.266	4157.416	304.668	287.116	22.800	100.000
58.500	19.802	43.635	1.000	41.265	4184.923	304.434	287.111	22.800	100.000
58.600	19.801	43.636	1.000	41.265	4164.763	304.962	287.065	22.800	100.000
58.700	19.801	43.636	1.000	41.267	4188.218	304.938	287.049	22.800	100.000
58.800	19.807	43.629	1.000	41.283	4156.672	305.018	287.044	22.800	100.000
58.900	19.833	43.600	1.000	41.286	4187.553	304.994	287.039	22.800	100.000
59.000	19.845	43.586	1.000	41.311	4157.650	305.056	287.015	22.800	100.000
59.100	19.847	43.581	1.000	41.314	4191.490	305.226	286.992	22.414	100.000
59.200	19.850	43.581	1.000	41.314	4164.120	305.249	286.969	22.400	100.000
59.300	19.850	43.579	1.000	41.312	4184.188	305.149	286.955	22.400	100.000
59.400	19.850	43.578	1.000	41.313	4165.234	305.542	286.918	22.400	100.000
59.500	19.853	43.574	1.000	41.313	4185.446	304.867	286.936	22.400	100.000
59.600	19.875	43.545	1.000	41.313	4153.833	304.711	286.944	22.400	100.000
59.700	19.890	43.525	1.000	41.314	4174.296	304.623	286.925	22.400	100.000
59.800	19.896	43.521	1.000	41.312	4155.280	304.709	286.918	22.400	100.000
59.900	19.896	43.517	1.000	41.313	4169.336	304.550	286.897	22.400	100.000
60.000	19.897	43.515	1.000	41.314	4159.783	304.677	286.891	22.400	100.000
60.100	19.897	43.516	1.000	41.314	4169.945	304.742	286.873	22.400	100.000
60.200	19.898	43.515	1.000	41.314	4167.819	304.536	286.882	22.400	100.000
60.300	19.913	43.492	1.000	41.314	4161.290	304.239	286.864	22.400	100.000
60.400	19.934	43.463	1.000	41.331	4163.703	304.459	286.841	22.400	100.000
60.500	19.941	43.454	1.000	41.332	4161.100	304.640	286.825	22.400	100.000
60.600	19.942	43.451	1.000	41.357	4165.304	304.179	286.825	22.400	100.000
60.700	19.942	43.450	1.000	41.360	4151.136	304.056	286.828	22.400	100.000
60.800	19.942	43.450	1.000	41.360	4171.122	304.396	286.780	22.400	100.000
60.900	19.942	43.449	1.000	41.361	4148.081	304.298	286.767	22.400	100.000
61.000	19.957	43.428	1.000	41.359	4169.367	304.594	286.748	22.400	100.000
61.100	19.978	43.399	1.000	41.360	4141.760	304.235	286.747	22.400	100.000
61.200	19.986	43.387	1.000	41.359	4172.524	304.531	286.729	22.400	100.000
61.300	19.987	43.384	1.000	41.359	4140.956	304.592	286.728	22.400	100.000
61.400	19.991	43.382	1.000	41.361	4170.021	304.419	286.699	22.400	100.000
61.500	19.988	43.382	1.000	41.361	4147.061	304.898	286.649	22.400	100.000
61.600	19.988	43.382	1.000	41.360	4178.365	305.027	286.650	22.400	100.000
61.700	19.994	43.375	1.000	41.360	4139.660	305.012	286.646	22.400	100.000
61.800	20.016	43.339	1.000	41.359	4168.920	304.417	286.675	22.400	100.000
61.900	20.029	43.322	1.000	41.360	4140.856	304.315	286.649	22.400	100.000
62.000	20.032	43.314	1.000	41.360	4172.396	304.780	286.613	22.400	100.000
62.100	20.035	43.312	1.000	41.360	4140.989	304.645	286.611	22.400	100.000
62.200	20.033	43.313	1.000	41.359	4161.349	304.355	286.607	22.400	100.000
62.300	20.034	43.312	1.000	41.361	4140.871	304.631	286.579	22.400	100.000
62.400	20.037	43.303	1.000	41.362	4163.306	304.194	286.591	22.400	100.000
62.500	20.060	43.267	1.000	41.361	4141.718	304.412	286.567	22.005	100.000
62.600	20.073	43.247	1.000	41.362	4159.126	304.463	286.543	22.000	100.000
62.700	20.077	43.240	1.000	41.375	4146.633	304.477	286.523	22.000	100.000
62.800	20.078	43.237	1.000	41.362	4160.468	304.818	286.496	22.000	100.000
62.900	20.079	43.238	1.000	41.376	4152.249	304.887	286.495	22.000	100.000
63.000	20.079	43.239	1.000	41.378	4162.956	304.927	286.487	22.000	100.000
63.100	20.079	43.236	1.000	41.407	4154.642	304.755	286.480	22.000	100.000
63.200	20.094	43.207	1.000	41.380	4156.611	304.912	286.450	22.000	100.000
63.300	20.114	43.180	1.000	41.405	4158.324	304.598	286.441	22.000	100.000
63.400	20.119	43.169	1.000	41.411	4151.887	305.056	286.405	22.000	100.000
63.500	20.121	43.165	1.000	41.411	4162.541	304.726	286.416	22.000	100.000
63.600	20.121	43.163	1.000	41.411	4151.409	304.926	286.378	22.000	100.000
63.700	20.121	43.165	1.000	41.410	4161.346	304.787	286.367	22.000	100.000
63.800	20.123	43.163	1.000	41.410	4146.705	304.766	286.367	22.000	100.000
63.900	20.136	43.139	1.000	41.409	4168.318	304.935	286.349	22.000	100.000
64.000	20.156	43.104	1.000	41.410	4139.734	304.722	286.344	22.000	100.000
64.100	20.164	43.091	1.000	41.411	4159.264	304.463	286.340	22.000	100.000
64.200	20.166	43.088	1.000	41.409	4130.927	304.570	286.339	22.000	100.000
64.300	20.167	43.087	1.000	41.409	4159.840	304.328	286.339	22.000	100.000
64.400	20.168	43.087	1.000	41.410	4130.075	304.497	286.308	22.000	100.000
64.500	20.169	43.085	1.000	41.410	4159.981	304.378	286.301	22.000	100.000
64.600	20.174	43.075	1.000	41.410	4127.092	304.485	286.297	22.000	100.000
64.700	20.192	43.038	1.000	41.411	4145.614	303.636	286.329	22.000	100.000
64.800	20.202	43.018	1.000	41.410	4102.435	302.629	286.367	22.000	100.000
64.900	20.207	43.011	1.000	41.366	4123.511	301.915	286.388	22.000	100.000
65.000	20.207	43.008	1.000	41.360	4081.584	300.578	286.435	22.000	100.000
65.100	20.207	43.008	1.000	41.361	4102.006	299.556	286.482	22.000	100.000
65.200	20.209	43.007	1.000	41.361	4070.146	299.172	286.494	22.000	100.000
65.300	20.209	43.001	1.000	41.361	4081.472	297.898	286.551	22.000	100.000
65.400	20.233	42.962	1.000	41.336	4045.033	296.982	286.581	22.000	100.000
65.500	20.243	42.940	1.000	41.315	4057.256	295.662	286.655	22.000	100.000
65.600	20.248	42.935	1.000	41.313	4023.417	294.782	286.686	22.000	100.000
65.700	20.250	42.932	1.000	41.286	4035.349	293.689	286.720	22.000	100.000
65.800	20.251	42.931	1.000	41.267	4013.407	293.278	286.762	22.000	100.000
65.900	20.250	42.931	1.000	41.238	4015.346	293.197	286.777	21.604	100.000
66.000	20.251	42.929	1.000	41.218	3996.279	292.250	286.806	21.600	100.000
66.100	20.266	42.901	1.000	41.215	3981.616	290.644	286.885	21.600	100.000
66.200	20.282	42.866	1.000	41.171	3981.250	290.035	286.905	21.600	100.000
66.300	20.290	42.853	1.000	41.142	3965.857	289.237	286.954	21.600	100.000
66.400	20.290	42.850	1.000	41.120	3961.949	288.016	287.009	21.600	100.000
66.500	20.291	42.850	1.000	41.093	3946.559	287.370	287.032	21.600	100.000
66.600	20.290	42.849	1.000	41.070	3952.131	286.477	287.074	21.600	100.000
66.700	20.290	42.848	1.000	41.043	3921.298	285.406	287.132	21.600	100.000
66.800	20.302	42.821	1.000	41.022	3936.407	284.706	287.156	21.600	100.000
66.900	20.319	42.788	1.000	40.978	3907.756	283.860	287.196	21.600	100.000
67.000	20.327	42.775	1.000	40.971	3929.048	283.283	287.229	21.600	100.000
67.100	20.328	42.770	1.000	40.927	3888.228	282.471	287.246	21.600	100.000
67.200	20.330	42.769	1.000	40.878	3904.170	281.132	287.309	21.600	100.000
67.300	20.330	42.768	1.000	40.873	3871.842	280.427	287.350	21.600	100.000
67.400	20.331	42.769	1.000	40.830	3905.229	279.939	287.376	21.600	100.000
67.500	20.333	42.762	1.000	40.782	3856.201	278.614	287.434	21.600	100.000
67.600	20.353	42.724	1.000	40.749	3874.319	277.450	287.489	21.600	100.000
67.700	20.363	42.699	1.000	40.703	3849.894	277.284	287.503	21.600	100.000
67.800	20.369	42.692	1.000	40.680	3867.218	276.175	287.544	21.600	100.000
67.900	20.369	42.689	1.000	40.633	3839.742	275.091	287.590	21.600	100.000
68.000	20.368	42.686	1.000	40.585	3845.622	274.876	287.627	21.600	100.000
68.100	20.369	42.688	1.000	40.553	3818.315	274.022	287.669	21.600	100.000
68.200	20.369	42.682	1.000	40.507	3814.926	272.235	287.766	21.600	100.000
68.300	20.390	42.643	1.000	40.456	3817.510	271.757	287.793	21.600	100.000
68.400	20.400	42.619	1.000	40.410	3810.455	271.355	287.808	21.600	100.000
68.500	20.402	42.610	1.000	40.387	3815.726	271.013	287.824	21.600	100.000
68.600	20.406	42.607	1.000	40.340	3807.036	270.545	287.849	21.600	100.000
68.700	20.404	42.606	1.000	40.293	3817.898	270.264	287.853	21.600	100.000
68.800	20.404	42.606	1.000	40.242	3782.649	269.170	287.889	21.600	100.000
68.900	20.404	42.604	1.000	40.197	3799.223	267.925	287.958	21.600	100.000
69.000	20.415	42.578	1.000	40.145	3770.955	267.055	288.015	21.600	100.000
69.100	20.432	42.545	1.000	40.098	3802.366	266.777	288.031	21.600	100.000
69.200	20.437	42.532	1.000	40.047	3764.617	266.542	288.042	21.600	100.000
69.300	20.440	42.529	1.000	39.999	3786.965	265.271	288.083	21.600	100.000
69.400	20.441	42.527	1.000	39.950	3750.342	264.023	288.136	21.600	100.000
69.500	20.441	42.526	1.000	39.900	3775.536	263.511	288.171	21.600	98.017
69.600	20.441	42.526	1.000	39.852	3746.353	263.070	288.199	21.600	98.000
69.700	20.449	42.505	1.000	39.803	3768.602	262.606	288.226	21.204	98.000
69.800	20.468	42.466	1.000	39.755	3754.636	262.349	288.233	21.200	98.000
69.900	20.472	42.453	1.000	39.706	3745.317	260.744	288.296	21.200	98.000
70.000	20.473	42.448	1.000	39.657	3739.524	260.233	288.344	21.200	98.000
70.100	20.476	42.447	1.000	39.582	3728.995	260.145	288.347	21.200	97.204
70.200	20.474	42.446	1.000	39.558	3739.280	259.122	288.405	21.200	94.021
70.300	20.476	42.445	1.000	39.483	3723.246	258.847	288.409	21.200	92.411
70.400	20.478	42.436	1.000	39.434	3742.245	258.716	288.428	21.200	92.400
70.500	20.494	42.398	1.000	39.384	3699.408	257.439	288.487	21.200	92.400
70.600	20.505	42.379	1.000	39.317	3726.210	256.680	288.511	21.200	92.004
70.700	20.509	42.371	1.000	39.268	3683.663	255.425	288.589	21.200	90.023
70.800	20.508	42.370	1.000	39.219	3720.405	254.834	288.615	21.200	87.631
70.900	20.509	42.370	1.000	39.142	3691.983	254.498	288.621	21.200	86.803
71.000	20.508	42.370	1.000	39.090	3715.396	254.166	288.638	21.200	86.800
71.100	20.511	42.363	1.000	39.041	3697.201	253.381	288.687	21.200	86.800
71.200	20.527	42.324	1.000	38.989	3695.887	252.823	288.712	21.200	86.800
71.300	20.539	42.301	1.000	38.925	3695.344	251.953	288.751	21.200	86.800
71.400	20.542	42.293	1.000	38.872	3680.229	251.436	288.764	21.200	86.800
71.500	20.543	42.292	1.000	38.798	3688.488	250.174	288.818	21.200	87.195
71.600	20.543	42.291	1.000	38.748	3658.225	249.636	288.853	21.200	87.200
71.700	20.544	42.292	1.000	38.680	3694.991	249.266	288.887	21.200	87.200
71.800	20.545	42.290	1.000	38.631	3652.881	248.334	288.936	21.200	87.200
71.900	20.555	42.264	1.000	38.555	3688.571	248.280	288.937	21.200	87.200
72.000	20.571	42.231	1.000	38.505	3658.911	247.369	288.962	21.200	87.200
72.100	20.575	42.219	1.000	38.455	3675.734	246.167	289.019	21.200	86.406
72.200	20.577	42.214	1.000	38.388	3648.760	245.967	289.052	21.200	83.247
72.300	20.578	42.214	1.000	38.311	3658.891	245.900	289.056	21.200	79.240
72.400	20.578	42.214	1.000	38.260	3659.766	244.881	289.124	21.200	78.408
72.500	20.579	42.213	1.000	38.193	3639.649	244.461	289.135	21.200	78.400
72.600	20.585	42.189	1.000	38.144	3664.247	243.866	289.160	21.200	78.400
72.700	20.602	42.154	1.000	38.066	3628.014	243.469	289.191	21.200	78.400
72.800	20.608	42.143	1.000	38.016	3672.986	243.018	289.212	21.200	78.400
72.900	20.609	42.137	1.000	37.948	3632.202	242.618	289.237	21.200	78.400
73.000	20.609	42.137	1.000	37.873	3657.682	241.858	289.268	21.200	78.400
73.100	20.611	42.136	1.000	37.822	3633.269	240.995	289.312	21.200	78.400
73.200	20.609	42.136	1.000	37.755	3638.419	240.635	289.323	21.200	78.004
73.300	20.614	42.128	1.000	37.677	3638.245	239.599	289.359	21.200	77.208
73.400	20.629	42.089	1.000	37.626	3620.067	239.332	289.392	21.200	76.409
73.500	20.638	42.070	1.000	37.558	3639.859	238.262	289.442	21.200	76.400
73.600	20.641	42.063	1.000	37.476	3599.981	237.797	289.465	21.200	76.005
73.700	20.642	42.059	1.000	37.422	3648.788	237.101	289.493	21.200	75.605
73.800	20.642	42.059	1.000	37.375	3631.037	236.969	289.518	20.802	75.600
73.900	20.642	42.060	1.000	37.278	3644.401	236.604	289.532	20.800	75.203
74.000	20.644	42.056	1.000	37.227	3624.124	236.071	289.565	20.800	74.406
74.100	20.659	42.020	1.000	37.178	3621.001	235.614	289.592	20.800	73.227
74.200	20.669	41.996	1.000	37.110	3643.472	235.250	289.596	20.800	72.408
74.300	20.670	41.989	1.000	37.034	3607.558	235.156	289.599	20.800	71.609
74.400	20.672	41.985	1.000	36.984	3644.291	234.934	289.619	20.800	71.207
74.500	20.672	41.985	1.000	36.916	3599.933	233.911	289.667	20.800	70.411
74.600	20.673	41.983	1.000	36.841	3635.703	233.482	289.677	20.800	69.603
74.700	20.672	41.984	1.000	36.785	3612.906	232.607	289.728	20.800	68.802
74.800	20.682	41.959	1.000	36.719	3608.876	232.217	289.752	20.800	68.403
74.900	20.694	41.927	1.000	36.643	3628.177	231.551	289.786	20.800	67.606
75.000	20.697	41.917	1.000	36.576	3592.692	231.245	289.803	20.800	66.411
75.100	20.699	41.913	1.000	36.499	3627.920	230.358	289.852	20.800	65.608
75.200	20.700	41.913	1.000	36.447	3584.718	229.906	289.873	20.800	64.809
75.300	20.700	41.912	1.000	36.354	3616.594	229.078	289.916	20.800	64.405
75.400	20.700	41.913	1.000	36.303	3583.135	228.190	289.970	20.800	63.611
75.500	20.709	41.892	1.000	36.208	3550.553	225.913	290.058	20.800	62.414
75.600	20.719	41.859	1.000	36.107	3532.341	222.661	290.235	20.800	60.809
75.700	20.724	41.845	1.000	36.012	3424.534	217.966	290.486	20.800	58.813
75.800	20.726	41.842	1.000	35.912	3374.736	211.523	290.818	20.800	57.212
75.900	20.727	41.841	1.000	35.769	3259.257	204.855	291.191	20.800	57.200
76.000	20.727	41.839	1.000	35.670	3248.581	201.255	291.434	20.800	57.200
76.100	20.727	41.839	1.000	35.570	3256.182	200.770	291.512	20.800	57.200
76.200	20.731	41.833	1.000	35.430	3251.658	200.686	291.536	20.800	57.200
76.300	20.744	41.796	1.000	35.328	3273.662	200.040	291.574	20.800	57.200
76.400	20.751	41.777	1.000	35.233	3238.442	199.849	291.596	20.800	57.200
76.500	20.753	41.770	1.000	35.104	3293.891	199.743	291.596	20.800	56.803
76.600	20.752	41.769	1.000	34.989	3266.687	199.843	291.610	20.800	56.800
76.700	20.754	41.767	1.000	34.894	3286.089	198.815	291.660	20.800	56.800
76.800	20.753	41.767	1.000	34.792	3305.115	198.922	291.657	20.800	56.403
76.900	20.757	41.761	1.000	34.668	3259.271	198.634	291.665	20.800	55.212
77.000	20.766	41.727	1.000	34.549	3265.478	197.123	291.756	20.800	53.617
77.100	20.771	41.706	1.000	34.422	3161.628	193.290	291.993	20.800	52.821
77.200	20.774	41.700	1.000	34.278	3135.485	188.590	292.261	20.800	52.800
77.300	20.775	41.696	1.000	34.157	3138.046	185.987	292.421	20.800	52.800
77.400	20.776	41.696	1.000	34.031	3114.583	185.139	292.458	20.800	52.402
77.500	20.775	41.696	1.000	33.888	3152.641	184.586	292.497	20.800	51.605
77.600	20.773	41.695	1.000	33.769	3096.212	183.338	292.570	20.800	50.409
77.700	20.781	41.674	1.000	33.624	3075.697	180.620	292.709	20.800	49.210
77.800	20.790	41.644	1.000	33.478	3033.264	177.035	292.902	20.800	48.804
77.900	20.792	41.633	1.000	33.306	2965.563	173.980	293.099	20.800	48.800
78.000	20.793	41.630	1.000	33.161	3001.762	171.766	293.234	20.800	48.405
78.100	20.792	41.628	1.000	33.012	2956.527	170.429	293.333	20.800	48.400
78.200	20.794	41.627	1.000	32.862	2974.957	169.903	293.380	20.800	48.400
78.300	20.793	41.628	1.000	32.743	3017.776	170.032	293.400	20.800	48.400
78.400	20.800	41.611	1.000	32.600	2984.272	170.161	293.397	20.800	48.400
78.500	20.810	41.578	1.000	32.451	3034.692	170.164	293.402	20.800	48.005
78.600	20.813	41.566	1.000	32.307	3018.551	169.821	293.427	20.800	48.000
78.700	20.815	41.565	1.000	32.160	3012.587	169.106	293.464	20.800	48.000
78.800	20.814	41.561	1.000	32.033	3038.268	168.501	293.509	20.800	47.604
78.900	20.815	41.561	1.000	31.886	3003.435	168.437	293.523	20.405	46.809
79.000	20.817	41.560	1.000	31.741	3011.661	167.334	293.574	20.400	46.405
79.100	20.817	41.557	1.000	31.575	2978.569	164.803	293.727	20.400	44.806
79.200	20.826	41.525	1.000	31.402	2886.469	161.278	293.915	20.400	44.004
79.300	20.828	41.507	1.000	31.255	2891.051	157.666	294.145	20.400	43.602
79.400	20.830	41.502	1.000	31.090	2842.051	154.610	294.313	20.400	43.600
79.500	20.830	41.501	1.000	30.915	2817.489	152.784	294.427	20.400	43.205
79.600	20.830	41.500	1.000	30.768	2854.978	151.341	294.513	20.400	43.200
79.700	20.830	41.497	1.000	30.604	2840.093	151.047	294.548	20.400	43.200
79.800	20.831	41.494	1.000	30.426	2857.089	151.006	294.570	20.400	43.200
79.900	20.838	41.465	1.000	30.280	2886.629	150.920	294.584	20.400	43.200
80.000	20.843	41.447	1.000	30.132	2868.383	150.513	294.602	20.400	43.200
80.100	20.846	41.437	1.000	29.969	2905.283	150.408	294.621	20.400	43.200
80.200	20.845	41.437	1.000	29.823	2915.728	150.323	294.641	20.400	43.200
80.300	20.845	41.436	1.000	29.645	2882.629	149.867	294.669	20.400	43.200
80.400	20.846	41.436	1.000	29.499	2925.217	148.999	294.723	20.400	43.200
80.500	20.845	41.436	1.000	29.353	2924.447	148.467	294.771	20.400	43.200
80.600	20.848	41.416	1.000	29.206	2894.041	148.351	294.784	20.400	42.804
80.700	20.853	41.389	1.000	29.041	2928.183	148.105	294.803	20.400	42.405
80.800	20.855	41.380	1.000	28.891	2884.185	146.607	294.890	20.400	42.400
80.900	20.854	41.378	1.000	28.720	2833.831	144.177	295.030	20.400	42.400
81.000	20.855	41.378	1.000	28.571	2887.085	143.003	295.103	20.400	42.400
81.100	20.856	41.377	1.000	28.408	2880.155	142.513	295.141	20.400	42.400
81.200	20.856	41.376	1.000	28.259	2849.011	141.567	295.207	20.400	42.400
81.300	20.858	41.362	1.000	28.083	2899.395	140.912	295.251	20.400	42.003
81.400	20.861	41.335	1.000	27.938	2877.073	140.180	295.293	20.400	42.000
81.500	20.862	41.325	1.000	27.785	2844.377	138.812	295.384	20.400	41.604
81.600	20.862	41.321	1.000	27.600	2870.492	137.592	295.468	20.400	41.600
81.700	20.863	41.320	1.000	27.448	2848.446	136.189	295.522	20.400	41.600
81.800	20.862	41.320	1.000	27.301	2822.871	135.349	295.577	20.400	41.600
81.900	20.862	41.320	1.000	27.107	2865.995	134.532	295.627	20.400	41.600
82.000	20.862	41.315	1.000	26.958	2865.218	133.919	295.682	20.400	41.600
82.100	20.863	41.287	1.000	26.812	2838.605	133.519	295.720	20.400	41.600
82.200	20.866	41.270	1.000	26.649	2867.319	132.621	295.773	20.400	41.600
82.300	20.866	41.267	1.000	26.470	2876.002	132.026	295.813	20.400	41.600
82.400	20.868	41.265	1.000	26.317	2858.788	131.567	295.861	20.400	41.204
82.500	20.867	41.266	1.000	26.160	2847.230	130.158	295.941	20.400	40.804
82.600	20.866	41.264	1.000	25.981	2847.942	128.283	296.038	20.400	40.800
82.700	20.868	41.261	1.000	25.833	2816.521	127.726	296.091	20.400	40.800
82.800	20.868	41.236	1.000	25.644	2787.648	126.935	296.146	20.400	40.004
82.900	20.865	41.218	1.000	25.475	2794.143	125.082	296.265	20.400	39.205
83.000	20.865	41.215	1.000	25.303	2721.394	122.605	296.394	20.400	38.803
83.100	20.866	41.213	1.000	25.107	2669.435	119.577	296.568	20.400	38.403
83.200	20.865	41.212	1.000	24.909	2685.844	117.366	296.702	20.400	38.400
83.300	20.866	41.213	1.000	24.717	2664.698	115.745	296.795	20.400	38.400
83.400	20.868	41.213	1.000	24.547	2655.474	114.357	296.900	20.400	38.015
83.500	20.867	41.199	1.000	24.345	2638.170	113.356	296.965	20.400	37.614
83.600	20.865	41.176	1.000	24.178	2647.530	111.684	297.070	20.400	37.206
83.700	20.865	41.169	1.000	23.956	2604.104	109.865	297.184	20.400	36.005
83.800	20.865	41.166	1.000	23.742	2535.360	107.704	297.303	20.400	34.807
83.900	20.865	41.166	1.000	23.549	2502.720	103.936	297.504	20.400	34.403
84.000	20.865	41.166	1.000	23.306	2437.364	100.532	297.709	20.400	34.003
84.100	20.862	41.165	1.000	23.080	2402.222	97.774	297.880	20.400	33.603
84.200	20.862	41.153	1.000	22.866	2364.083	95.592	298.014	20.400	33.204
84.300	20.859	41.132	1.000	22.622	2378.356	93.630	298.147	20.400	32.409
84.400	20.859	41.125	1.000	22.399	2310.464	90.940	298.303	20.400	32.400
84.500	20.858	41.121	1.000	22.152	2258.966	88.430	298.451	20.400	31.611
84.600	20.859	41.121	1.000	21.909	2231.331	85.846	298.609	20.400	30.806
84.700	20.858	41.119	1.000	21.648	2214.399	83.292	298.773	20.400	30.410
84.800	20.858	41.119	1.000	21.404	2155.117	82.420	298.852	20.400	30.400
84.900	20.858	41.118	1.000	21.156	2127.842	80.761	298.970	20.400	30.400
85.000	20.854	41.097	1.000	20.891	2152.561	79.257	299.075	20.400	30.400
85.100	20.851	41.086	1.000	20.646	2171.260	78.407	299.153	20.400	30.400
85.200	20.849	41.082	1.000	20.401	2145.005	77.420	299.216	20.400	30.400
85.300	20.850	41.080	1.000	20.157	2136.192	76.666	299.268	20.400	30.400
85.400	20.850	41.081	1.000	19.893	2147.503	75.576	299.345	20.400	30.400
85.500	20.850	41.080	1.000	19.645	2177.465	74.741	299.403	20.400	30.400
85.600	20.849	41.078	1.000	19.404	2145.631	73.804	299.473	20.400	30.400
85.700	20.845	41.063	1.000	19.157	2153.862	73.006	299.535	20.400	30.400
85.800	20.840	41.049	1.000	18.913	2134.614	72.078	299.603	20.400	30.400
85.900	20.839	41.046	1.000	18.647	2172.500	71.246	299.655	20.400	30.400
86.000	20.838	41.043	1.000	18.398	2145.258	70.384	299.717	20.400	30.400
86.100	20.839	41.043	1.000	18.157	2148.806	69.466	299.786	20.400	30.400
86.200	20.839	41.044	1.000	17.915	2144.739	68.593	299.856	20.400	30.400
86.300	20.840	41.042	1.000	17.671	2155.086	67.665	299.920	20.400	30.400
86.400	20.834	41.034	1.000	17.424	2180.015	66.760	299.979	20.400	30.400
86.500	20.828	41.020	1.000	17.178	2152.285	65.794	300.046	20.400	30.400
86.600	20.825	41.016	1.000	16.919	2160.629	64.954	300.111	20.400	30.400
86.700	20.823	41.015	1.000	16.673	2142.924	64.056	300.174	20.400	30.400
86.800	20.824	41.014	1.000	16.427	2162.931	63.255	300.237	20.400	30.400
86.900	20.823	41.012	1.000	16.187	2185.658	62.974	300.268	20.400	30.004
87.000	20.823	41.012	1.000	15.943	2135.621	62.267	300.326	20.400	30.000
87.100	20.818	41.004	1.000	15.693	2143.064	60.945	300.417	20.400	30.000
87.200	20.811	40.992	1.000	15.451	2139.105	59.834	300.504	20.400	30.000
87.300	20.806	40.990	1.000	15.184	2130.935	58.833	300.564	20.400	30.000
87.400	20.804	40.988	1.000	14.936	2169.765	58.009	300.609	20.400	30.000
87.500	20.804	40.988	1.000	14.696	2145.501	57.160	300.678	20.400	30.000
87.600	20.805	40.986	1.000	14.450	2131.760	56.211	300.756	20.400	30.000
87.700	20.804	40.986	1.000	14.202	2154.362	55.393	300.810	20.400	30.000
87.800	20.804	40.986	1.000	13.940	2122.804	54.460	300.872	20.400	30.000
87.900	20.792	40.975	1.000	13.711	2143.231	53.581	300.933	20.400	30.000
88.000	20.786	40.969	1.000	13.450	2185.923	52.869	300.978	20.400	30.000
88.100	20.784	40.966	1.000	13.207	2148.804	51.917	301.042	20.400	30.000
88.200	20.784	40.964	1.000	12.963	2137.568	50.942	301.120	20.400	30.000
88.300	20.785	40.966	1.000	12.720	2162.008	50.159	301.180	20.400	30.000
88.400	20.784	40.966	1.000	12.459	2145.826	49.273	301.228	20.400	30.000
88.500	20.783	40.962	1.000	12.221	2136.610	48.349	301.298	20.400	30.000
88.600	20.774	40.955	1.000	11.983	2174.144	47.515	301.364	20.400	30.000
88.700	20.766	40.949	1.000	11.709	2172.680	46.620	301.435	20.400	30.000
88.800	20.764	40.945	1.000	11.489	2138.235	45.653	301.489	20.400	30.000
88.900	20.765	40.945	1.000	11.222	2153.458	44.852	301.545	20.400	29.605
89.000	20.763	40.945	1.000	10.977	2162.768	44.556	301.576	20.400	29.205
89.100	20.763	40.944	1.000	10.729	2121.926	43.786	301.647	20.400	29.200
89.200	20.762	40.944	1.000	10.470	2093.735	42.429	301.733	20.400	29.200
89.300	20.753	40.940	1.000	10.219	2118.853	41.225	301.813	20.400	28.802
89.400	20.741	40.934	1.000	9.978	2124.592	40.337	301.885	20.003	28.800
89.500	20.739	40.932	1.000	9.713	2111.552	39.296	301.963	20.000	28.800
89.600	20.736	40.932	1.000	9.461	2094.170	38.231	302.046	20.000	28.800
89.700	20.736	40.932	1.000	9.198	2101.214	37.298	302.100	20.000	28.800
89.800	20.736	40.934	1.000	8.951	2109.964	36.454	302.169	20.000	28.800
89.900	20.736	40.934	1.000	8.683	2110.923	35.548	302.231	20.000	28.800
90.000	20.729	40.930	1.000	8.437	2093.437	34.750	302.277	20.000	28.800
90.100	20.716	40.926	1.000	8.199	2089.460	33.895	302.335	20.000	28.800
90.200	20.713	40.924	1.000	7.952	2118.782	33.049	302.393	20.000	28.800
90.300	20.712	40.925	1.000	7.688	2117.123	32.232	302.452	20.000	28.800
90.400	20.712	40.924	1.000	7.444	2136.063	31.375	302.516	20.000	28.800
90.500	20.712	40.925	1.000	7.195	2112.696	30.492	302.585	20.000	28.800
90.600	20.710	40.922	1.000	6.923	2096.843	29.643	302.647	20.000	28.800
90.700	20.707	40.923	1.000	6.680	2114.198	28.749	302.714	20.000	28.800
90.800	20.696	40.922	1.000	6.434	2095.412	27.858	302.769	20.000	28.800
90.900	20.689	40.922	1.000	6.189	2120.143	26.893	302.840	20.000	28.800
91.000	20.686	40.920	1.000	5.927	2124.806	25.965	302.904	20.000	28.800
91.100	20.686	40.922	1.000	5.686	2100.111	25.668	302.940	20.000	28.800
91.200	20.685	40.922	1.000	5.448	2106.301	24.969	302.996	20.000	28.800
91.300	20.686	40.921	1.000	5.173	2101.804	24.091	303.057	20.000	28.800
91.400	20.682	40.921	1.000	4.929	2092.482	23.144	303.128	20.000	28.800
91.500	20.671	40.920	1.000	4.681	2111.067	22.237	303.203	20.000	28.800
91.600	20.663	40.922	1.000	4.429	2102.859	21.351	303.263	20.000	28.800
91.700	20.661	40.921	1.000	4.174	2087.556	20.343	303.333	20.000	28.800
91.800	20.659	40.921	1.000	3.932	2113.141	19.424	303.393	20.000	28.800
91.900	20.660	40.922	1.000	3.657	2119.302	18.575	303.468	20.000	28.800
92.000	20.657	40.921	1.000	3.409	2090.091	17.645	303.542	20.000	28.800
92.100	20.660	40.921	1.000	3.150	2064.763	16.796	303.594	20.000	28.800
92.200	20.649	40.923	1.000	2.902	2071.804	15.933	303.641	20.000	28.800
92.300	20.640	40.924	1.000	2.637	2092.084	15.006	303.709	20.000	28.406
92.400	20.636	40.926	1.000	2.388	2087.779	14.070	303.791	20.000	28.400
92.500	20.633	40.925	1.000	2.144	2066.710	13.066	303.845	20.000	28.400
92.600	20.633	40.925	1.000	1.880	2067.107	12.172	303.915	20.000	28.400
92.700	20.634	40.925	1.000	1.606	2045.442	11.255	303.977	20.000	28.400
92.800	20.634	40.925	1.000	1.358	2049.333	10.405	304.055	20.000	28.400
92.900	20.626	40.930	1.000	1.099	2043.686	9.456	304.110	20.000	28.400
93.000	20.613	40.933	1.000	0.823	2031.477	8.538	304.176	20.000	28.400
93.100	20.608	40.934	1.000	0.559	2025.440	7.653	304.234	20.000	28.400
93.200	20.607	40.934	1.000	0.291	2036.589	7.551	304.251	20.000	28.400
93.300	20.606	40.934	1.000	0.259	2102.661	6.762	304.326	20.000	28.400
93.400	20.606	40.934	1.000	0.476	2241.278	5.867	304.401	20.000	28.400
93.500	20.607	40.934	1.000	0.713	1831.553	5.166	304.456	20.000	28.400
93.600	20.604	40.936	1.000	0.597	1475.893	5.266	304.450	20.000	28.008
93.700	20.591	40.940	1.000	0.407	1695.503	6.592	304.398	20.000	28.000
93.800	20.584	40.944	1.000	0.253	2460.494	7.632	304.351	20.000	28.000
93.900	20.583	40.946	1.000	0.382	2941.240	7.956	304.349	20.000	27.602
94.000	20.583	40.947	1.000	0.759	3226.450	8.015	304.349	20.000	27.202
94.100	20.583	40.947	1.000	0.850	2729.192	8.060	304.368	20.000	26.806
94.200	20.583	40.945	1.000	0.742	2399.143	10.023	304.275	20.000	25.610
94.300	20.582	40.948	1.000	0.597	3105.508	11.298	304.227	20.000	25.600
94.400	20.568	40.953	1.000	0.478	3221.253	10.524	304.268	20.000	25.600
94.500	20.562	40.957	1.000	0.331	3074.449	9.281	304.334	20.000	25.205
94.600	20.558	40.959	1.000	0.228	3036.769	8.796	304.389	20.000	25.200
94.700	20.557	40.960	1.000	0.434	3181.196	8.017	304.436	20.000	10.603
94.800	20.557	40.960	1.000	0.684	2965.045	6.758	304.524	20.000	0.049
94.900	20.558	40.959	1.000	0.571	1893.250	5.808	304.592	20.000	0.000
95.000	20.557	40.957	1.000	0.246	1350.275	5.921	304.597	20.000	0.000
95.100	20.549	40.965	1.000	0.218	1669.517	4.500	304.674	20.000	0.000
95.200	20.537	40.971	1.000	0.309	1380.896	3.019	304.784	20.000	0.000
95.300	20.532	40.976	1.000	0.452	789.918	2.918	304.813	20.000	0.000
95.400	20.531	40.977	1.000	0.599	812.229	2.878	304.811	20.000	0.000
95.500	20.531	40.977	1.000	0.558	985.053	3.385	304.814	20.000	0.000
95.600	20.531	40.976	1.000	0.241	725.899	3.832	304.815	20.000	0.000
95.700	20.531	40.978	1.000	0.193	1159.207	4.027	304.815	20.000	0.000
95.800	20.523	40.982	1.000	0.328	1364.251	3.711	304.848	20.000	0.000
95.900	20.511	40.992	1.000	0.471	865.999	3.014	304.889	20.000	0.000
96.000	20.507	40.997	1.000	0.601	835.001	3.038	304.892	20.000	0.000
96.100	20.506	40.996	1.000	0.594	911.450	3.501	304.892	20.000	0.000
96.200	20.506	40.997	1.000	0.377	604.106	3.833	304.889	20.000	0.000
96.300	20.506	40.997	1.000	0.056	-167.862	4.184	304.874	20.000	0.000
96.400	20.506	40.999	1.000	0.003	-123.151	3.825	304.891	20.000	0.000
96.500	20.503	41.000	1.000	0.000	-21.628	2.708	304.953	20.000	0.000
96.600	20.492	41.010	1.000	0.000	-11.363	1.953	305.026	20.000	0.000
96.700	20.487	41.016	1.000	0.000	-11.363	1.512	305.053	20.000	0.000
96.800	20.486	41.018	1.000	0.002	-11.491	1.352	305.083	20.000	0.000
96.900	20.484	41.019	1.000	0.001	-11.507	1.319	305.086	20.000	0.000
97.000	20.485	41.018	1.000	0.000	-11.443	1.326	305.111	20.000	0.000
97.100	20.485	41.020	1.000	0.000	-11.435	1.347	305.121	20.000	0.000
97.200	20.484	41.021	1.000	0.000	-11.499	1.385	305.132	20.000	0.000
97.300	20.472	41.032	1.000	0.000	-11.442	1.408	305.140	20.000	0.000
97.400	20.464	41.039	1.000	0.000	-11.243	1.413	305.144	20.000	0.000
97.500	20.462	41.041	1.000	0.000	-11.414	1.414	305.145	20.000	0.000
97.600	20.462	41.044	1.000	0.000	-11.435	1.402	305.169	20.000	0.000
97.700	20.460	41.043	1.000	0.000	-11.371	1.409	305.165	20.000	0.000
97.800	20.458	41.042	1.000	0.000	-11.170	1.396	305.189	20.000	0.000
97.900	20.460	41.042	1.000	0.000	-11.406	1.397	305.198	20.000	0.000
98.000	20.454	41.048	1.000	0.001	-11.370	1.386	305.216	20.000	0.000
98.100	20.445	41.059	1.000	0.000	-11.363	1.393	305.222	20.000	0.000
98.200	20.441	41.066	1.000	0.001	-11.688	1.397	305.240	20.000	0.000
98.300	20.441	41.067	1.000	0.000	-11.530	1.395	305.245	20.000	0.000
98.400	20.440	41.067	1.000	0.001	-11.379	1.394	305.242	20.000	0.000
98.500	20.440	41.067	1.000	0.000	-11.363	1.380	305.263	20.000	0.000
98.600	20.440	41.067	1.000	0.000	-11.298	1.355	305.279	20.000	0.000
98.700	20.431	41.073	1.000	0.000	-11.548	1.318	305.284	20.000	0.000
98.800	20.426	41.085	1.000	0.000	-11.193	1.122	305.316	20.000	0.000
98.900	20.422	41.092	1.000	0.001	-11.404	1.080	305.323	20.000	0.000
99.000	20.421	41.095	1.000	0.000	-11.564	1.074	305.340	20.000	0.000
99.100	20.420	41.094	1.000	0.002	-11.254	1.043	305.356	20.000	0.000
99.200	20.421	41.094	1.000	0.001	-11.412	1.030	305.358	20.000	0.000
99.300	20.421	41.094	1.000	0.000	-11.306	1.043	305.362	20.000	0.000
99.400	20.419	41.097	1.000	0.000	-11.418	0.993	305.376	20.000	0.000
99.500	20.409	41.107	1.000	0.000	-11.305	0.981	305.378	20.000	0.000
99.600	20.403	41.116	1.000	0.000	-11.355	0.923	305.395	20.000	0.000
99.700	20.402	41.119	1.000	0.001	-11.491	0.918	305.397	20.000	0.000
99.800	20.401	41.120	1.000	0.001	-11.457	0.899	305.418	20.000	0.000
99.900	20.402	41.119	1.000	0.000	-11.375	0.899	305.427	20.000	0.000
100.000	20.401	41.119	1.000	0.001	-11.168	0.905	305.418	20.000	0.000
100.100	20.401	41.122	1.000	0.000	-11.211	0.897	305.444	20.000	0.000
100.200	20.392	41.135	1.000	0.000	-11.413	0.896	305.458	20.000	0.000
100.300	20.383	41.142	1.000	0.000	-11.435	0.885	305.476	20.000	0.000
100.400	20.382	41.146	1.000	0.000	-11.307	0.901	305.475	20.000	0.000
100.500	20.382	41.147	1.000	0.001	-11.419	0.897	305.475	20.000	0.000
100.600	20.382	41.148	1.000	0.000	-11.117	0.905	305.498	20.000	0.000
100.700	20.382	41.146	1.000	0.000	-11.456	0.886	305.495	20.000	0.000
100.800	20.382	41.148	1.000	0.000	-11.442	0.886	305.497	20.000	0.000
100.900	20.375	41.156	1.000	0.000	-11.307	0.881	305.524	20.000	0.000
101.000	20.368	41.170	1.000	0.000	-11.226	0.883	305.526	20.000	0.000
101.100	20.366	41.177	1.000	0.000	-11.283	0.886	305.545	20.000	0.000
101.200	20.365	41.177	1.000	0.000	-11.354	0.881	305.548	20.000	0.000
101.300	20.364	41.177	1.000	0.001	-11.491	0.889	305.552	20.000	0.000
101.400	20.365	41.177	1.000	0.000	-11.314	0.890	305.566	20.000	0.000
101.500	20.363	41.177	1.000	0.001	-11.550	0.887	305.571	20.000	0.000
101.600	20.359	41.186	1.000	0.000	-11.708	0.881	305.578	20.000	0.000
101.700	20.352	41.197	1.000	0.000	-11.723	0.880	305.576	20.000	0.000
101.800	20.350	41.203	1.000	0.000	-11.340	0.880	305.589	20.000	0.000
101.900	20.348	41.203	1.000	0.000	-11.227	0.883	305.601	20.000	0.000
102.000	20.346	41.203	1.000	0.000	-11.219	0.866	305.599	20.000	0.000
102.100	20.348	41.205	1.000	0.001	-11.348	0.875	305.622	20.000	0.000
102.200	20.349	41.205	1.000	0.000	-11.298	0.880	305.626	20.000	0.000
102.300	20.346	41.208	1.000	0.000	-11.611	0.883	305.629	20.000	0.000
102.400	20.339	41.221	1.000	0.000	-11.523	0.875	305.646	20.000	0.000
102.500	20.334	41.231	1.000	0.002	-11.316	0.882	305.656	20.000	0.000
102.600	20.331	41.233	1.000	0.000	-11.548	0.881	305.660	20.000	0.000
102.700	20.331	41.236	1.000	0.000	-11.642	0.888	305.674	20.000	0.000
102.800	20.331	41.236	1.000	0.000	-11.330	0.879	305.673	20.000	0.000
102.900	20.331	41.235	1.000	0.001	-11.543	0.880	305.699	20.000	0.000
103.000	20.328	41.237	1.000	0.000	-11.705	0.883	305.707	20.000	0.000
103.100	20.322	41.250	1.000	0.001	-11.596	0.892	305.704	20.000	0.000
103.200	20.317	41.261	1.000	0.000	-11.453	0.876	305.707	20.000	0.000
103.300	20.316	41.265	1.000	0.000	-11.242	0.879	305.727	20.000	0.000
103.400	20.315	41.267	1.000	0.001	-11.408	0.875	305.741	20.000	0.000
103.500	20.314	41.267	1.000	0.000	-11.120	0.879	305.739	20.000	0.000
103.600	20.314	41.266	1.000	0.000	-11.391	0.883	305.745	20.000	0.000
103.700	20.314	41.267	1.000	0.001	-11.242	0.881	305.756	20.000	0.000
103.800	20.309	41.274	1.000	0.000	-11.540	0.880	305.751	20.000	0.000
103.900	20.303	41.287	1.000	0.001	-11.579	0.877	305.757	20.000	0.000
104.000	20.300	41.294	1.000	0.000	-11.515	0.880	305.781	20.000	0.000
104.100	20.299	41.295	1.000	0.000	-11.634	0.880	305.782	20.000	0.000
104.200	20.299	41.294	1.000	0.001	-11.330	0.880	305.781	20.000	0.000
104.300	20.298	41.295	1.000	0.000	-11.355	0.880	305.784	20.000	0.000
104.400	20.300	41.294	1.000	0.000	-11.427	0.875	305.801	20.000	0.000
104.500	20.297	41.303	1.000	0.000	-11.691	0.879	305.814	20.000	0.000
104.600	20.289	41.315	1.000	0.000	-11.469	0.880	305.816	20.000	0.000
104.700	20.288	41.317	1.000	0.000	-11.435	0.861	305.832	20.000	0.000
104.800	20.288	41.317	1.000	0.000	-11.435	0.857	305.836	20.000	0.000
104.900	20.288	41.317	1.000	0.000	-11.435	0.857	305.836	20.000	0.000
105.000	20.288	41.317	1.000	0.000	-11.435	0.857	305.836	20.000	0.000
105.100	20.288	41.317	1.000	0.000	-11.435	0.857	305.836	20.000	0.000
105.200	20.288	41.317	1.000	0.000	-11.435	0.857	305.836	20.000	0.000
105.300	20.288	41.317	1.000	0.000	-11.435	0.857	305.836	20.000	0.000
105.400	20.288	41.317	1.000	0.000	-11.435	0.857	305.836	20.000	0.000
105.500	20.288	41.317	1.000	0.000	-11.435	0.857	305.836	20.000	0.000
105.600	20.288	41.317	1.000	0.000	-11.435	0.857	305.836	20.000	0.000
105.700	20.288	41.317	1.000	0.000	-11.435	0.857	305.836	20.000	0.000
105.800	20.288	41.317	1.000	0.000	-11.435	0.857	305.836	20.000	0.000
105.900	20.288	41.317	1.000	0.000	-11.435	0.857	305.836	20.000	0.000
106.000	20.288	41.317	1.000	0.000	-11.435	0.857	305.836	20.000	0.000
106.100	20.288	41.317	1.000	0.000	-11.435	0.857	305.836	20.000	0.000
106.200	20.288	41.317	1.000	0.000	-11.435	0.857	305.836	20.000	0.000
106.300	20.288	41.317	1.000	0.000	-11.435	0.857	305.836	20.000	0.000
106.400	20.288	41.317	1.000	0.000	-11.435	0.857	305.836	20.000	0.000
106.500	20.288	41.317	1.000	0.000	-11.435	0.857	305.836	20.000	0.000
106.600	20.288	41.317	1.000	0.000	-11.435	0.857	305.836	20.000	0.000
106.700	20.288	41.317	1.000	0.000	-11.435	0.857	305.836	20.000	0.000
106.800	20.288	41.317	1.000	0.000	-11.435	0.857	305.836	20.000	0.000
106.900	20.288	41.317	1.000	0.000	-11.435	0.857	305.836	20.000	0.000
107.000	20.288	41.317	1.000	0.000	-11.435	0.857	305.836	20.000	0.000
107.100	20.288	41.317	1.000	0.000	-11.435	0.857	305.836	20.000	0.000
107.200	20.288	41.317	1.000	0.000	-11.435	0.857	305.836	20.000	0.000
107.300	20.288	41.317	1.000	0.000	-11.435	0.857	305.836	20.000	0.000
107.400	20.288	41.317	1.000	0.000	-11.435	0.857	305.836	20.000	0.000
107.500	20.288	41.317	1.000	0.000	-11.435	0.857	305.836	20.000	0.000
107.600	20.288	41.317	1.000	0.000	-11.435	0.857	305.836	20.000	0.000
107.700	20.288	41.317	1.000	0.000	-11.435	0.857	305.836	20.000	0.000
107.800	20.288	41.317	1.000	0.000	-11.435	0.857	305.836	20.000	0.000
107.900	20.288	41.317	1.000	0.000	-11.435	0.857	305.836	20.000	0.000
108.000	20.288	41.317	1.000	0.000	-11.435	0.857	305.836	20.000	0.000
108.100	20.288	41.317	1.000	0.000	-11.435	0.857	305.836	20.000	0.000
108.200	20.288	41.317	1.000	0.000	-11.435	0.857	305.836	20.000	0.000
108.300	20.288	41.317	1.000	0.000	-11.435	0.857	305.836	20.000	0.000
108.400	20.288	41.317	1.000	0.000	-11.435	0.857	305.836	20.000	0.000
108.500	20.288	41.317	1.000	0.000	-11.435	0.857	305.836	20.000	0.000
108.600	20.288	41.317	1.000	0.000	-11.435	0.857	305.836	20.000	0.000
108.700	20.288	41.317	1.000	0.000	-11.435	0.857	305.836	20.000	0.000
108.800	20.288	41.317	1.000	0.000	-11.435	0.857	305.836	20.000	0.000
108.900	20.288	41.317	1.000	0.000	-11.435	0.857	305.836	20.000	0.000
109.000	20.288	41.317	1.000	0.000	-11.435	0.857	305.836	20.000	0.000
109.100	20.288	41.317	1.000	0.000	-11.435	0.857	305.836	20.000	0.000
109.200	20.288	41.317	1.000	0.000	-11.435	0.857	305.836	20.000	0.000
109.300	20.288	41.317	1.000	0.000	-11.435	0.857	305.836	20.000	0.000
109.400	20.288	41.317	1.000	0.000	-11.435	0.857	305.836	20.000	0.000
109.500	20.288	41.317	1.000	0.000	-11.435	0.857	305.836	20.000	0.000
109.600	20.288	41.317	1.000	0.000	-11.435	0.857	305.836	20.000	0.000
109.700	20.288	41.317	1.000	0.000	-11.435	0.857	305.836	20.000	0.000
109.800	20.288	41.317	1.000	0.000	-11.435	0.857	305.836	20.000	0.000
109.900	20.288	41.317	1.000	0.000	-11.435	0.857	305.836	20.000	0.000
110.000	20.288	41.317	1.000	0.000	-11.435	0.857	305.836	20.000	0.000
110.100	20.288	41.317	1.000	0.000	-11.435	0.857	305.836	20.000	0.000
110.200	20.288	41.317	1.000	0.000	-11.435	0.857	305.836	20.000	0.000
110.300	20.288	41.317	1.000	0.000	-11.435	0.857	305.836	20.000	0.000
110.400	20.288	41.317	1.000	0.000	-11.435	0.857	305.836	20.000	0.000
110.500	20.288	41.317	1.000	0.000	-11.435	0.857	305.836	20.000	0.000
110.600	20.288	41.317	1.000	0.000	-11.435	0.857	305.836	20.000	0.000
110.700	20.288	41.317	1.000	0.000	-11.435	0.857	305.836	20.000	0.000
110.800	20.288	41.317	1.000	0.000	-11.435	0.857	305.836	20.000	0.000
110.900	20.288	41.317	1.000	0.000	-11.435	0.857	305.836	20.000	0.000
111.000	20.288	41.317	1.000	0.000	-11.435	0.857	305.836	20.000	0.000
111.100	20.288	41.317	1.000	0.000	-11.435	0.857	305.836	20.000	0.000
111.200	20.288	41.317	1.000	0.000	-11.435	0.857	305.836	20.000	0.000
111.300	20.288	41.317	1.000	0.000	-11.435	0.857	305.836	20.000	0.000
111.400	20.288	41.317	1.000	0.000	-11.435	0.857	305.836	20.000	0.000
111.500	20.288	41.317	1.000	0.000	-11.435	0.857	305.836	20.000	0.000
111.600	20.288	41.317	1.000	0.000	-11.435	0.857	305.836	20.000	0.000
111.700	20.288	41.317	1.000	0.000	-11.435	0.857	305.836	20.000	0.000
111.800	20.288	41.317	1.000	0.000	-11.435	0.857	305.836	20.000	0.000
111.900	20.288	41.317	1.000	0.000	-11.435	0.857	305.836	20.000	0.000
112.000	20.288	41.317	1.000	0.000	-11.435	0.857	305.836	20.000	0.000
112.100	20.288	41.317	1.000	0.000	-11.435	0.857	305.836	20.000	0.000
112.200	20.288	41.317	1.000	0.000	-11.435	0.857	305.836	20.000	0.000
112.300	20.288	41.317	1.000	0.000	-11.435	0.857	305.836	20.000	0.000
112.400	20.288	41.317	1.000	0.000	-11.435	0.857	305.836	20.000	0.000
112.500	20.288	41.317	1.000	0.000	-11.435	0.857	305.836	20.000	0.000
112.600	20.288	41.317	1.000	0.000	-11.435	0.857	305.836	20.000	0.000
112.700	20.288	41.317	1.000	0.000	-11.435	0.857	305.836	20.000	0.000
112.800	20.288	41.317	1.000	0.000	-11.435	0.857	305.836	20.000	0.000
112.900	20.288	41.317	1.000	0.000	-11.435	0.857	305.836	20.000	0.000
113.000	20.288	41.317	1.000	0.000	-11.435	0.857	305.836	20.000	0.000
113.100	20.288	41.317	1.000	0.000	-11.435	0.857	305.836	20.000	0.000
113.200	20.288	41.317	1.000	0.000	-11.435	0.857	305.836	20.000	0.000
113.300	20.288	41.317	1.000	0.000	-11.435	0.857	305.836	20.000	0.000
113.400	20.288	41.317	1.000	0.000	-11.435	0.857	305.836	20.000	0.000
113.500	20.288	41.317	1.000	0.000	-11.435	0.857	305.836	20.000	0.000
113.600	20.288	41.317	1.000	0.000	-11.435	0.857	305.836	20.000	0.000
113.700	20.288	41.317	1.000	0.000	-11.435	0.857	305.836	20.000	0.000
113.800	20.288	41.317	1.000	0.000	-11.435	0.857	305.836	20.000	0.000
113.900	20.288	41.317	1.000	0.000	-11.435	0.857	305.836	20.000	0.000
114.000	20.288	41.317	1.000	0.000	-11.435	0.857	305.836	20.000	0.000
114.100	20.288	41.317	1.000	0.000	-11.435	0.857	305.836	20.000	0.000
114.200	20.288	41.317	1.000	0.000	-11.435	0.857	305.836	20.000	0.000
114.300	20.288	41.317	1.000	0.000	-11.435	0.857	305.836	20.000	0.000
114.400	20.288	41.317	1.000	0.000	-11.435	0.857	305.836	20.000	0.000
114.500	20.288	41.317	1.000	0.000	-11.435	0.857	305.836	20.000	0.000
114.600	20.288	41.317	1.000	0.000	-11.435	0.857	305.836	20.000	0.000
114.700	20.288	41.317	1.000	0.000	-11.435	0.857	305.836	20.000	0.000
