Time[sec]	Test_Cell_Temp[C]	Test_Cell_RH[%]	Phase_#	Dyno_Speed[mph]	Dyno_Tractive_Effort[N]	HV_Battery_Current[A]	HV_Battery_Voltage[V]	HV_Battery_SOC[%]	Accelerator_Pedal_Position[%]
-10.000	20.651	47.576	0.000	0.000	-11.228	-0.194	1.691	12.800	0.000
-9.900	20.650	47.576	0.000	0.000	-11.352	-0.200	1.684	12.800	0.000
-9.800	20.651	47.574	0.000	0.000	-11.230	-0.188	1.717	12.800	0.000
-9.700	20.650	47.570	0.000	0.000	-11.219	-0.200	1.730	12.800	0.000
-9.600	20.651	47.569	0.000	0.000	-11.285	-0.194	1.764	12.800	0.000
-9.500	20.652	47.569	0.000	0.000	-11.224	-0.200	1.795	12.800	0.000
-9.400	20.651	47.566	0.000	0.001	-11.352	-0.194	1.815	12.800	0.000
-9.300	20.651	47.569	0.000	0.000	-11.363	-0.212	1.842	12.800	0.000
-9.200	20.652	47.569	0.000	0.001	-11.363	-0.213	1.873	12.800	0.000
-9.100	20.651	47.567	0.000	0.000	-11.363	-0.219	1.881	12.800	0.000
-9.000	20.652	47.564	0.000	0.000	-11.495	-0.219	1.893	12.800	0.000
-8.900	20.652	47.559	0.000	0.001	-11.507	-0.210	1.912	12.800	0.000
-8.800	20.653	47.557	0.000	0.001	-11.440	-0.207	1.928	12.800	0.000
-8.700	20.653	47.556	0.000	0.000	-11.435	-0.215	1.950	12.800	0.000
-8.600	20.653	47.556	0.000	0.000	-11.368	-0.219	1.959	12.800	0.000
-8.500	20.653	47.556	0.000	0.000	-11.296	-0.219	1.985	12.800	0.000
-8.400	20.654	47.556	0.000	0.000	-11.224	-0.216	2.012	12.800	0.000
-8.300	20.653	47.555	0.000	0.001	-11.286	-0.213	2.036	12.800	0.000
-8.200	20.653	47.550	0.000	0.000	-11.424	-0.210	2.037	12.800	0.000
-8.100	20.652	47.550	0.000	0.000	-11.435	-0.210	2.048	12.800	0.000
-8.000	20.651	47.550	0.000	0.000	-11.567	-0.216	2.067	12.800	0.000
-7.900	20.654	47.550	0.000	0.000	-11.314	-0.219	2.098	12.800	0.000
-7.800	20.653	47.550	0.000	0.000	-11.356	-0.216	2.092	12.800	0.000
-7.700	20.654	47.550	0.000	0.001	-11.430	-0.219	2.124	12.800	0.000
-7.600	20.653	47.549	0.000	0.001	-11.234	-0.205	2.130	12.800	0.000
-7.500	20.654	47.546	0.000	0.001	-11.285	-0.203	2.148	12.800	0.000
-7.400	20.655	47.543	0.000	0.000	-11.357	-0.212	2.183	12.800	0.000
-7.300	20.655	47.543	0.000	0.000	-11.230	-0.189	2.184	12.800	0.000
-7.200	20.655	47.542	0.000	0.000	-11.286	0.040	2.875	12.800	0.000
-7.100	20.655	47.541	0.000	0.000	-11.225	1.086	246.965	12.800	0.000
-7.000	20.653	47.542	0.000	0.000	-11.285	0.430	279.516	12.800	0.000
-6.900	20.656	47.540	0.000	0.000	-11.425	-0.108	303.341	12.800	0.000
-6.800	20.655	47.537	0.000	0.000	-11.302	-0.142	305.290	12.800	0.000
-6.700	20.655	47.535	0.000	0.000	-11.421	-0.148	305.323	12.800	0.000
-6.600	20.655	47.533	0.000	0.001	-11.435	0.407	305.283	12.800	0.000
-6.500	20.655	47.533	0.000	0.000	-11.303	1.498	305.227	12.800	0.000
-6.400	20.656	47.534	0.000	0.000	-11.291	2.370	305.186	12.800	0.000
-6.300	20.656	47.531	0.000	0.001	-11.224	2.849	305.154	12.800	0.000
-6.200	20.657	47.531	0.000	0.000	-11.285	3.144	305.138	12.800	0.000
-6.100	20.657	47.529	0.000	0.000	-11.224	3.341	305.130	12.800	0.000
-6.000	20.657	47.526	0.000	0.000	-11.284	3.435	305.115	12.800	0.000
-5.900	20.656	47.524	0.000	0.000	-11.291	3.685	305.106	12.800	0.000
-5.800	20.657	47.525	0.000	0.000	-11.358	3.739	305.117	12.800	0.000
-5.700	20.658	47.525	0.000	0.000	-11.363	3.490	305.114	12.800	0.000
-5.600	20.658	47.524	0.000	0.000	-11.229	3.461	305.114	12.800	0.000
-5.500	20.658	47.524	0.000	0.000	-11.421	3.487	305.117	12.800	0.000
-5.400	20.658	47.521	0.000	0.001	-11.435	3.493	305.121	12.800	0.000
-5.300	20.657	47.518	0.000	0.000	-11.369	3.552	305.118	12.800	0.000
-5.200	20.657	47.516	0.000	0.000	-11.430	3.575	305.117	12.800	0.000
-5.100	20.657	47.514	0.000	0.000	-11.302	3.574	305.125	12.800	0.000
-5.000	20.657	47.516	0.000	0.000	-11.224	3.598	305.118	12.800	0.000
-4.900	20.658	47.515	0.000	0.002	-11.485	3.605	305.100	12.800	0.000
-4.800	20.657	47.513	0.000	0.000	-11.440	3.624	305.091	12.800	0.000
-4.700	20.658	47.512	0.000	0.000	-11.567	3.625	305.090	12.800	0.000
-4.600	20.660	47.511	0.000	0.000	-11.445	3.619	305.102	12.800	0.000
-4.500	20.658	47.509	0.000	0.000	-11.237	3.613	305.086	12.800	0.000
-4.400	20.660	47.505	0.000	0.000	-11.352	3.609	305.086	12.800	0.000
-4.300	20.661	47.506	0.000	0.000	-11.429	3.603	305.087	12.800	0.000
-4.200	20.660	47.505	0.000	0.001	-11.501	3.609	305.090	12.800	0.000
-4.100	20.660	47.505	0.000	0.000	-11.374	3.613	305.086	12.800	0.000
-4.000	20.660	47.505	0.000	0.000	-11.228	3.624	305.087	12.800	0.000
-3.900	20.660	47.501	0.000	0.000	-11.418	3.641	305.093	12.800	0.000
-3.800	20.660	47.498	0.000	0.002	-11.368	3.636	305.087	12.800	0.000
-3.700	20.660	47.498	0.000	0.000	-11.494	3.627	305.090	12.800	0.000
-3.600	20.660	47.498	0.000	0.000	-11.373	3.547	305.088	12.800	0.000
-3.500	20.659	47.499	0.000	0.001	-11.297	3.726	305.092	12.800	0.000
-3.400	20.659	47.498	0.000	0.000	-11.225	3.716	305.083	12.800	0.000
-3.300	20.659	47.496	0.000	0.001	-11.416	3.725	305.086	12.800	0.000
-3.200	20.660	47.494	0.000	0.000	-11.435	3.669	305.086	12.800	0.000
-3.100	20.661	47.492	0.000	0.001	-11.369	3.700	305.088	12.800	0.000
-3.000	20.661	47.491	0.000	0.001	-11.229	3.680	305.092	12.800	0.000
-2.900	20.660	47.490	0.000	0.002	-11.484	3.601	305.086	12.800	0.000
-2.800	20.660	47.492	0.000	0.000	-11.310	3.628	305.088	12.800	0.000
-2.700	20.661	47.490	0.000	0.000	-11.291	3.621	305.092	12.800	0.000
-2.600	20.661	47.492	0.000	0.001	-11.224	3.561	305.087	12.800	0.000
-2.500	20.661	47.489	0.000	0.000	-11.417	3.493	305.088	12.800	0.000
-2.400	20.661	47.485	0.000	0.000	-11.238	3.456	305.083	12.800	0.000
-2.300	20.661	47.485	0.000	0.000	-11.219	3.419	305.086	12.800	0.000
-2.200	20.661	47.483	0.000	0.000	-11.219	3.350	305.098	12.800	0.000
-2.100	20.661	47.481	0.000	0.002	-11.284	3.241	305.100	12.800	0.000
-2.000	20.661	47.481	0.000	0.000	-11.158	3.188	305.106	12.800	0.000
-1.900	20.661	47.482	0.000	0.001	-11.016	3.135	305.111	12.800	0.000
-1.800	20.663	47.480	0.000	0.000	-11.133	3.060	305.123	12.800	0.000
-1.700	20.661	47.477	0.000	0.000	-11.345	2.983	305.119	12.800	0.000
-1.600	20.661	47.476	0.000	0.000	-11.297	2.896	305.122	12.800	0.000
-1.500	20.661	47.475	0.000	0.000	-11.291	2.703	305.117	12.800	0.000
-1.400	20.661	47.474	0.000	0.000	-11.357	2.479	305.142	12.800	0.000
-1.300	20.661	47.473	0.000	0.000	-11.561	2.414	305.149	12.800	0.000
-1.200	20.661	47.474	0.000	0.001	-11.514	2.224	305.164	12.800	0.000
-1.100	20.661	47.472	0.000	0.000	-11.307	2.063	305.164	12.800	0.000
-1.000	20.662	47.470	0.000	0.000	-11.423	1.927	305.164	12.800	0.000
-0.900	20.661	47.467	0.000	0.001	-11.237	1.771	305.169	12.800	0.000
-0.800	20.662	47.466	0.000	0.000	-11.478	1.637	305.187	12.800	0.000
-0.700	20.662	47.465	0.000	0.000	-11.375	1.503	305.193	12.800	0.000
-0.600	20.661	47.465	0.000	0.000	-11.231	1.320	305.213	12.800	0.000
-0.500	20.662	47.466	0.000	0.000	-11.417	1.244	305.222	12.800	0.000
-0.400	20.662	47.465	0.000	0.000	-11.435	1.186	305.223	12.800	0.000
-0.300	20.661	47.463	0.000	0.000	-11.105	0.949	305.230	12.800	0.000
-0.200	20.661	47.462	0.000	0.001	-11.205	0.725	305.246	12.800	0.000
-0.100	20.661	47.461	0.000	0.001	-11.350	0.606	305.249	12.800	0.000
-0.000	20.661	47.462	0.000	0.000	-11.297	0.516	305.249	12.800	0.000
0.100	20.661	47.462	0.000	0.000	-11.291	0.337	305.262	12.800	0.000
0.200	20.661	47.462	0.000	0.000	-11.357	0.125	305.266	12.800	0.000
0.300	20.660	47.461	0.000	0.000	-11.429	0.039	305.269	12.800	0.000
0.400	20.662	47.458	0.000	0.000	-11.304	0.041	305.269	12.800	0.000
0.500	20.661	47.455	0.000	0.000	-11.226	0.047	305.271	12.800	0.000
0.600	20.661	47.454	0.000	0.000	-11.349	0.044	305.279	12.800	0.000
0.700	20.661	47.453	0.000	0.000	-11.363	0.058	305.273	12.800	0.000
0.800	20.661	47.453	0.000	0.000	-11.231	0.042	305.274	12.800	0.000
0.900	20.661	47.453	0.000	0.000	-11.284	0.039	305.279	12.800	0.000
1.000	20.662	47.453	0.913	0.000	-11.554	0.039	305.273	12.800	0.000
1.100	20.663	47.453	1.000	0.001	-11.316	0.039	305.274	12.800	0.000
1.200	20.662	47.450	1.000	0.000	-11.226	0.041	305.280	12.800	0.000
1.300	20.663	47.447	1.000	0.000	-11.415	0.060	305.280	12.800	0.000
1.400	20.663	47.447	1.000	0.001	-11.435	0.052	305.276	12.800	0.000
1.500	20.662	47.447	1.000	0.000	-11.303	0.048	305.274	12.800	0.000
1.600	20.663	47.446	1.000	0.000	-11.356	0.042	305.282	12.800	0.000
1.700	20.664	47.447	1.000	0.001	-11.494	0.040	305.291	12.800	0.000
1.800	20.663	47.446	1.000	0.001	-11.376	0.043	305.301	12.800	0.000
1.900	20.662	47.443	1.000	0.000	-11.298	0.043	305.299	12.800	0.000
2.000	20.662	47.441	1.000	0.000	-11.291	0.043	305.282	12.800	0.000
2.100	20.666	47.440	1.000	0.001	-11.226	0.043	305.288	12.800	0.000
2.200	20.665	47.441	1.000	0.000	-11.219	0.044	305.289	12.800	0.000
2.300	20.666	47.442	1.000	0.001	-11.542	0.048	305.294	12.800	0.000
2.400	20.663	47.440	1.000	0.000	-11.644	0.044	305.301	12.800	0.000
2.500	20.663	47.442	1.000	0.000	-11.327	0.041	305.292	12.800	0.000
2.600	20.663	47.439	1.000	0.000	-11.487	0.046	305.289	12.800	0.000
2.700	20.664	47.434	1.000	0.002	-11.376	0.048	305.276	12.800	0.000
2.800	20.664	47.433	1.000	0.000	-11.559	0.042	305.294	12.800	0.000
2.900	20.664	47.433	1.000	0.000	-11.257	0.039	305.299	12.800	0.000
3.000	20.666	47.434	1.000	0.000	-11.348	0.042	305.297	12.800	0.000
3.100	20.664	47.433	1.000	0.002	-11.297	0.050	305.299	12.800	0.000
3.200	20.663	47.434	1.000	0.000	-11.226	0.039	305.296	12.800	0.000
3.300	20.665	47.433	1.000	0.001	-11.611	0.040	305.297	12.800	0.000
3.400	20.663	47.428	1.000	0.001	-11.716	0.045	305.304	12.800	0.000
3.500	20.662	47.427	1.000	0.000	-11.788	0.039	305.302	12.800	0.000
3.600	20.664	47.426	1.000	0.000	-11.277	0.041	305.297	12.800	0.000
3.700	20.663	47.426	1.000	0.000	-11.417	0.049	305.299	12.800	0.000
3.800	20.664	47.427	1.000	0.000	-11.305	0.049	305.280	12.800	0.000
3.900	20.664	47.427	1.000	0.002	-11.614	0.048	305.282	12.800	0.000
4.000	20.666	47.426	1.000	0.000	-11.325	0.046	305.290	12.800	0.000
4.100	20.664	47.424	1.000	0.000	-11.421	0.047	305.295	12.800	0.000
4.200	20.664	47.423	1.000	0.000	-11.305	0.043	305.290	12.800	0.000
4.300	20.664	47.423	1.000	0.000	-11.420	0.073	305.297	12.800	0.000
4.400	20.664	47.423	1.000	0.000	-11.435	0.138	305.284	12.800	0.000
4.500	20.663	47.422	1.000	0.049	-11.435	0.212	305.280	12.800	0.000
4.600	20.664	47.421	1.000	0.097	-11.435	0.320	305.280	12.800	0.000
4.700	20.663	47.421	1.000	0.171	57.606	0.472	305.276	12.800	0.000
4.800	20.662	47.419	1.000	0.225	224.419	0.733	305.254	12.800	0.000
4.900	20.663	47.417	1.000	0.319	234.383	1.022	305.251	12.800	1.592
5.000	20.664	47.416	1.000	0.415	376.492	1.392	305.219	12.800	5.118
5.100	20.664	47.416	1.000	0.514	715.641	1.841	305.196	12.800	6.391
5.200	20.664	47.416	1.000	0.683	913.436	2.414	305.156	12.800	6.400
5.300	20.663	47.416	1.000	0.876	1085.857	3.198	305.109	12.800	6.400
5.400	20.663	47.416	1.000	1.070	1289.050	4.168	305.052	12.800	7.184
5.500	20.664	47.415	1.000	1.340	1502.184	5.335	304.982	12.800	11.428
5.600	20.663	47.413	1.000	1.586	1726.490	6.018	304.931	12.800	11.993
5.700	20.664	47.412	1.000	1.849	1937.279	7.515	304.861	12.800	12.000
5.800	20.663	47.411	1.000	2.093	1909.082	8.764	304.812	12.800	11.602
5.900	20.664	47.411	1.000	2.289	1765.659	9.260	304.774	12.800	11.206
6.000	20.664	47.411	1.000	2.485	1670.995	9.407	304.764	12.800	10.423
6.100	20.664	47.414	1.000	2.683	1548.387	9.406	304.760	12.800	10.400
6.200	20.665	47.411	1.000	2.833	1440.060	9.274	304.758	12.800	10.400
6.300	20.667	47.408	1.000	2.999	1330.133	9.077	304.764	12.800	10.400
6.400	20.666	47.407	1.000	3.147	1213.246	8.833	304.767	12.800	10.400
6.500	20.667	47.407	1.000	3.274	1116.085	8.562	304.784	12.800	10.400
6.600	20.665	47.407	1.000	3.393	1032.102	8.374	304.791	12.800	10.400
6.700	20.667	47.407	1.000	3.493	936.392	7.899	304.815	12.800	10.798
6.800	20.665	47.407	1.000	3.639	869.047	7.463	304.841	12.800	11.593
6.900	20.666	47.406	1.000	3.740	873.831	7.403	304.840	12.800	11.998
7.000	20.665	47.404	1.000	3.862	869.885	7.653	304.844	12.800	13.191
7.100	20.664	47.401	1.000	3.981	853.315	7.854	304.812	12.800	15.571
7.200	20.663	47.401	1.000	4.127	902.111	8.170	304.814	12.800	16.788
7.300	20.664	47.403	1.000	4.228	931.550	8.564	304.779	12.800	17.196
7.400	20.663	47.405	1.000	4.373	907.410	8.811	304.751	12.800	17.200
7.500	20.664	47.401	1.000	4.474	882.622	9.042	304.737	12.800	17.984
7.600	20.664	47.403	1.000	4.615	885.153	9.234	304.735	12.800	20.788
7.700	20.665	47.401	1.000	4.745	942.669	9.424	304.718	12.800	20.800
7.800	20.663	47.398	1.000	4.861	961.644	9.859	304.690	12.800	20.800
7.900	20.663	47.397	1.000	4.991	940.502	10.224	304.663	12.800	21.197
8.000	20.662	47.398	1.000	5.135	956.133	10.456	304.656	12.800	23.579
8.100	20.663	47.397	1.000	5.284	993.422	10.897	304.624	12.800	25.176
8.200	20.664	47.396	1.000	5.424	1078.953	11.673	304.569	12.800	25.974
8.300	20.663	47.395	1.000	5.577	1088.522	12.445	304.527	12.800	27.929
8.400	20.666	47.396	1.000	5.721	1106.123	13.046	304.491	12.800	28.396
8.500	20.666	47.392	1.000	5.886	1124.936	13.715	304.450	12.800	28.400
8.600	20.666	47.392	1.000	6.033	1126.659	14.125	304.427	12.800	28.798
8.700	20.663	47.394	1.000	6.180	1140.262	14.294	304.423	12.800	29.992
8.800	20.664	47.394	1.000	6.353	1149.297	14.799	304.394	12.800	31.933
8.900	20.664	47.391	1.000	6.519	1206.071	15.453	304.342	12.800	34.312
9.000	20.664	47.391	1.000	6.695	1282.928	16.464	304.290	12.800	36.380
9.100	20.664	47.391	1.000	6.889	1309.539	17.681	304.215	12.800	36.400
9.200	20.666	47.389	1.000	7.059	1324.246	18.627	304.163	12.800	36.795
9.300	20.664	47.388	1.000	7.234	1325.723	19.020	304.135	12.800	37.196
9.400	20.664	47.388	1.000	7.429	1347.281	19.583	304.097	12.800	38.395
9.500	20.666	47.388	1.000	7.623	1378.529	20.349	304.065	12.800	40.375
9.600	20.661	47.388	1.000	7.819	1420.274	21.385	303.989	12.800	41.560
9.700	20.663	47.388	1.000	8.017	1473.218	22.676	303.910	12.800	42.380
9.800	20.661	47.388	1.000	8.211	1500.538	23.295	303.868	12.800	42.400
9.900	20.664	47.385	1.000	8.434	1517.219	24.389	303.797	12.800	42.400
10.000	20.664	47.383	1.000	8.647	1515.661	25.124	303.757	12.800	42.793
10.100	20.663	47.384	1.000	8.845	1545.641	25.853	303.700	12.800	42.800
10.200	20.666	47.383	1.000	9.039	1543.936	26.616	303.654	12.800	42.800
10.300	20.661	47.383	1.000	9.231	1520.420	27.252	303.616	12.800	42.800
10.400	20.664	47.385	1.000	9.456	1533.194	27.770	303.584	12.800	42.800
10.500	20.664	47.383	1.000	9.669	1554.261	28.419	303.541	12.800	42.800
10.600	20.664	47.381	1.000	9.870	1550.445	29.109	303.496	12.800	43.194
10.700	20.664	47.380	1.000	10.065	1541.721	29.695	303.463	12.800	43.971
10.800	20.667	47.377	1.000	10.286	1552.865	30.091	303.448	12.800	44.792
10.900	20.666	47.375	1.000	10.501	1605.311	31.183	303.365	12.800	45.960
11.000	20.667	47.376	1.000	10.725	1656.124	32.717	303.265	12.800	46.395
11.100	20.665	47.377	1.000	10.941	1673.234	34.215	303.184	12.800	47.588
11.200	20.667	47.376	1.000	11.183	1692.002	35.360	303.107	12.800	48.383
11.300	20.665	47.375	1.000	11.429	1744.592	36.711	303.020	12.800	48.400
11.400	20.666	47.374	1.000	11.669	1771.924	38.192	302.922	12.800	48.400
11.500	20.668	47.373	1.000	11.895	1757.122	39.252	302.850	12.800	48.400
11.600	20.667	47.372	1.000	12.111	1744.547	39.976	302.800	12.800	48.797
11.700	20.668	47.373	1.000	12.349	1774.732	40.991	302.747	12.800	48.800
11.800	20.667	47.374	1.000	12.604	1789.924	41.993	302.677	12.800	48.800
11.900	20.667	47.372	1.000	12.829	1769.142	42.320	302.645	12.800	48.800
12.000	20.666	47.371	1.000	13.073	1777.179	43.024	302.592	12.800	48.800
12.100	20.668	47.368	1.000	13.315	1804.526	43.869	302.525	12.800	48.800
12.200	20.668	47.367	1.000	13.531	1775.531	44.751	302.481	12.800	48.800
12.300	20.668	47.367	1.000	13.777	1747.541	45.374	302.430	12.800	48.800
12.400	20.668	47.366	1.000	14.022	1783.153	46.190	302.369	12.800	48.800
12.500	20.668	47.368	1.000	14.251	1780.978	47.075	302.313	12.800	48.800
12.600	20.668	47.366	1.000	14.492	1765.367	47.769	302.283	12.800	48.800
12.700	20.670	47.366	1.000	14.739	1802.013	48.555	302.228	12.800	48.800
12.800	20.668	47.363	1.000	14.950	1780.082	49.389	302.162	12.800	48.800
12.900	20.668	47.362	1.000	15.194	1740.394	49.773	302.136	12.800	48.800
13.000	20.668	47.359	1.000	15.419	1776.929	50.498	302.084	12.800	48.800
13.100	20.668	47.361	1.000	15.658	1778.038	51.592	302.018	12.800	48.800
13.200	20.668	47.362	1.000	15.908	1766.083	52.116	301.985	12.800	48.800
13.300	20.668	47.359	1.000	16.123	1796.408	52.882	301.935	12.800	48.800
13.400	20.668	47.359	1.000	16.363	1755.950	53.938	301.854	12.800	48.800
13.500	20.668	47.355	1.000	16.611	1753.755	54.362	301.813	12.800	48.800
13.600	20.668	47.355	1.000	16.834	1783.479	55.507	301.744	12.800	48.800
13.700	20.668	47.354	1.000	17.075	1764.620	56.014	301.691	12.800	48.800
13.800	20.668	47.354	1.000	17.294	1792.289	56.740	301.639	12.800	48.800
13.900	20.669	47.355	1.000	17.537	1765.940	57.643	301.575	12.800	48.800
14.000	20.667	47.354	1.000	17.777	1739.479	57.935	301.531	12.800	48.800
14.100	20.668	47.355	1.000	17.982	1779.092	58.736	301.485	12.800	48.800
14.200	20.668	47.349	1.000	18.218	1762.484	59.541	301.431	12.800	48.800
14.300	20.669	47.347	1.000	18.465	1789.245	60.152	301.388	12.800	48.800
14.400	20.667	47.346	1.000	18.688	1755.188	61.024	301.333	12.800	48.800
14.500	20.668	47.345	1.000	18.929	1746.555	61.793	301.285	12.800	48.800
14.600	20.666	47.345	1.000	19.144	1771.338	62.565	301.213	12.800	48.800
14.700	20.669	47.345	1.000	19.387	1764.762	63.416	301.162	12.800	48.800
14.800	20.670	47.346	1.000	19.611	1785.001	64.203	301.109	12.800	48.800
14.900	20.668	47.345	1.000	19.857	1739.783	64.973	301.055	12.800	48.800
15.000	20.669	47.342	1.000	20.071	1768.485	65.303	301.016	12.800	48.800
15.100	20.672	47.341	1.000	20.316	1772.392	66.343	300.981	12.800	48.800
15.200	20.670	47.340	1.000	20.545	1787.141	66.761	300.930	12.800	48.800
15.300	20.670	47.339	1.000	20.791	1739.409	67.749	300.880	12.800	48.800
15.400	20.671	47.340	1.000	21.004	1749.670	68.222	300.827	12.800	48.800
15.500	20.670	47.338	1.000	21.243	1777.060	69.382	300.742	12.800	48.800
15.600	20.670	47.337	1.000	21.469	1783.839	69.946	300.716	12.800	48.800
15.700	20.670	47.333	1.000	21.687	1746.375	70.914	300.647	12.800	48.800
15.800	20.674	47.332	1.000	21.926	1735.572	71.522	300.600	12.800	48.800
15.900	20.671	47.330	1.000	22.151	1768.668	72.158	300.542	12.800	48.800
16.000	20.673	47.330	1.000	22.368	1778.446	73.096	300.490	12.800	48.800
16.100	20.673	47.330	1.000	22.609	1739.356	73.404	300.465	12.800	48.800
16.200	20.673	47.330	1.000	22.836	1745.476	74.113	300.414	12.800	48.800
16.300	20.672	47.330	1.000	23.079	1773.907	74.862	300.348	12.800	48.800
16.400	20.673	47.323	1.000	23.292	1775.395	75.686	300.284	12.800	48.800
16.500	20.674	47.320	1.000	23.538	1732.820	76.420	300.248	12.800	48.800
16.600	20.674	47.322	1.000	23.763	1751.561	77.167	300.174	12.800	48.800
16.700	20.672	47.320	1.000	23.976	1773.211	78.018	300.117	12.800	48.800
16.800	20.673	47.322	1.000	24.218	1759.960	78.606	300.077	12.800	48.800
16.900	20.673	47.321	1.000	24.446	1727.675	79.509	300.019	12.800	48.800
17.000	20.672	47.320	1.000	24.658	1756.448	80.218	299.970	12.800	48.800
17.100	20.674	47.317	1.000	24.901	1772.369	80.554	299.956	12.800	48.404
17.200	20.674	47.313	1.000	25.101	1712.196	81.367	299.886	12.800	48.400
17.300	20.674	47.310	1.000	25.324	1689.675	80.983	299.910	12.800	48.005
17.400	20.675	47.310	1.000	25.540	1685.850	80.174	299.936	12.800	48.000
17.500	20.674	47.311	1.000	25.736	1667.942	79.997	299.927	12.800	48.000
17.600	20.674	47.309	1.000	25.958	1623.240	80.109	299.904	12.800	48.000
17.700	20.675	47.310	1.000	26.176	1651.700	80.542	299.878	12.800	48.000
17.800	20.675	47.304	1.000	26.371	1650.447	80.444	299.876	12.800	48.000
17.900	20.675	47.297	1.000	26.566	1595.113	80.852	299.823	12.800	48.000
18.000	20.675	47.296	1.000	26.808	1611.680	81.161	299.803	12.800	48.000
18.100	20.676	47.296	1.000	27.007	1630.514	81.105	299.788	12.800	48.396
18.200	20.674	47.296	1.000	27.201	1581.980	81.390	299.771	12.800	48.400
18.300	20.674	47.294	1.000	27.395	1590.035	81.965	299.714	12.800	48.400
18.400	20.674	47.294	1.000	27.589	1607.335	82.224	299.699	12.800	48.400
18.500	20.674	47.293	1.000	27.833	1566.461	82.338	299.690	12.800	48.400
18.600	20.674	47.285	1.000	28.033	1563.929	82.858	299.636	12.800	48.798
18.700	20.674	47.281	1.000	28.226	1589.811	83.333	299.609	12.800	48.800
18.800	20.674	47.281	1.000	28.422	1562.117	83.647	299.566	12.800	48.800
18.900	20.674	47.280	1.000	28.617	1541.360	84.116	299.540	12.800	48.800
19.000	20.675	47.281	1.000	28.802	1572.862	84.309	299.540	12.800	48.800
19.100	20.674	47.280	1.000	29.004	1540.483	84.419	299.512	12.800	48.800
19.200	20.675	47.278	1.000	29.203	1511.107	84.389	299.497	12.800	48.800
19.300	20.677	47.271	1.000	29.400	1538.808	84.499	299.485	12.800	48.800
19.400	20.680	47.265	1.000	29.592	1505.217	84.688	299.470	12.800	48.800
19.500	20.679	47.264	1.000	29.790	1489.765	84.672	299.474	12.800	48.800
19.600	20.678	47.265	1.000	29.986	1514.859	84.707	299.443	12.800	48.800
19.700	20.678	47.263	1.000	30.181	1466.025	85.003	299.419	12.800	48.800
19.800	20.679	47.262	1.000	30.375	1466.412	84.876	299.412	12.800	48.800
19.900	20.680	47.262	1.000	30.520	1486.994	84.860	299.396	12.800	48.800
20.000	20.681	47.257	1.000	30.711	1432.789	84.820	299.381	12.800	48.800
20.100	20.682	47.248	1.000	30.909	1443.356	85.007	299.361	12.800	48.800
20.200	20.683	47.244	1.000	31.104	1458.765	84.882	299.369	12.800	49.199
20.300	20.683	47.243	1.000	31.253	1412.083	85.119	299.345	12.800	49.597
20.400	20.682	47.243	1.000	31.444	1463.070	85.778	299.283	12.800	49.600
20.500	20.683	47.243	1.000	31.639	1455.299	86.418	299.249	12.800	49.991
20.600	20.684	47.244	1.000	31.837	1408.812	86.838	299.233	12.800	50.000
20.700	20.682	47.235	1.000	31.984	1448.880	87.127	299.202	12.800	50.000
20.800	20.686	47.227	1.000	32.171	1413.968	87.197	299.187	12.800	50.389
20.900	20.687	47.223	1.000	32.366	1408.798	87.333	299.155	12.800	50.400
21.000	20.687	47.221	1.000	32.521	1442.263	87.885	299.101	12.800	50.793
21.100	20.687	47.223	1.000	32.714	1394.957	88.399	299.090	12.800	51.190
21.200	20.687	47.221	1.000	32.911	1440.651	88.865	299.047	12.800	51.994
21.300	20.687	47.221	1.000	33.080	1444.662	89.443	299.005	12.800	52.398
21.400	20.687	47.218	1.000	33.255	1409.421	90.446	298.942	12.800	52.400
21.500	20.689	47.208	1.000	33.446	1454.593	91.051	298.911	12.800	52.400
21.600	20.690	47.203	1.000	33.594	1394.751	91.204	298.888	12.800	52.791
21.700	20.692	47.200	1.000	33.791	1392.440	90.353	298.907	12.404	52.800
21.800	20.692	47.200	1.000	33.954	1401.949	89.872	298.930	12.400	53.190
21.900	20.691	47.200	1.000	34.130	1362.378	89.959	298.907	12.400	53.200
22.000	20.690	47.200	1.000	34.278	1398.927	90.384	298.888	12.400	53.588
22.100	20.693	47.200	1.000	34.471	1346.147	89.761	298.907	12.400	53.998
22.200	20.696	47.189	1.000	34.619	1338.830	89.631	298.907	12.400	54.000
22.300	20.694	47.181	1.000	34.812	1344.603	88.823	298.926	12.400	54.395
22.400	20.695	47.180	1.000	34.962	1301.489	88.971	298.919	12.400	54.400
22.500	20.694	47.180	1.000	35.108	1341.302	89.346	298.897	12.400	54.797
22.600	20.695	47.179	1.000	35.273	1286.396	89.023	298.888	12.400	54.800
22.700	20.696	47.177	1.000	35.447	1301.221	88.671	298.911	12.400	54.800
22.800	20.696	47.178	1.000	35.596	1314.349	89.073	298.865	12.400	54.800
22.900	20.697	47.169	1.000	35.760	1263.440	89.579	298.834	12.400	54.800
23.000	20.700	47.160	1.000	35.903	1293.156	89.003	298.852	12.400	54.800
23.100	20.700	47.158	1.000	36.083	1247.452	88.654	298.872	12.400	54.800
23.200	20.701	47.155	1.000	36.232	1277.239	88.781	298.835	12.400	54.800
23.300	20.699	47.156	1.000	36.377	1266.263	89.035	298.815	12.400	54.800
23.400	20.700	47.157	1.000	36.542	1228.526	89.213	298.799	12.400	54.800
23.500	20.700	47.157	1.000	36.687	1235.018	87.832	298.874	12.400	54.800
23.600	20.701	47.148	1.000	36.834	1211.508	87.490	298.880	12.400	54.800
23.700	20.704	47.138	1.000	36.981	1261.333	88.901	298.798	12.400	54.800
23.800	20.706	47.135	1.000	37.127	1206.490	89.576	298.749	12.400	54.800
23.900	20.706	47.133	1.000	37.271	1194.328	88.208	298.820	12.400	54.800
24.000	20.707	47.132	1.000	37.417	1178.556	86.858	298.878	12.400	56.394
24.100	20.707	47.133	1.000	37.569	1172.246	87.004	298.876	12.400	57.583
24.200	20.708	47.132	1.000	37.719	1199.352	87.199	298.861	12.400	58.394
24.300	20.708	47.131	1.000	37.849	1151.155	87.675	298.798	12.400	59.193
24.400	20.713	47.116	1.000	37.992	1169.384	86.246	298.880	12.400	59.992
24.500	20.713	47.110	1.000	38.140	1128.149	86.219	298.880	12.400	61.583
24.600	20.715	47.108	1.000	38.256	1165.128	86.338	298.873	12.400	61.600
24.700	20.716	47.108	1.000	38.403	1127.415	86.240	298.850	12.400	61.995
24.800	20.714	47.107	1.000	38.552	1127.217	85.840	298.864	12.400	62.000
24.900	20.716	47.107	1.000	38.679	1138.908	85.984	298.850	12.400	62.000
25.000	20.714	47.104	1.000	38.797	1110.036	86.422	298.823	12.400	62.000
25.100	20.723	47.092	1.000	38.938	1139.706	86.587	298.788	12.400	62.000
25.200	20.726	47.084	1.000	39.087	1093.285	86.418	298.794	12.400	62.000
25.300	20.726	47.081	1.000	39.216	1112.096	85.609	298.839	12.400	62.000
25.400	20.727	47.080	1.000	39.337	1072.308	85.420	298.838	12.400	62.000
25.500	20.728	47.081	1.000	39.480	1104.605	85.666	298.816	12.400	62.000
25.600	20.727	47.080	1.000	39.606	1078.595	85.734	298.800	12.400	62.000
25.700	20.729	47.081	1.000	39.724	1108.528	86.172	298.767	12.400	62.000
25.800	20.732	47.070	1.000	39.869	1080.311	86.577	298.756	12.400	62.000
25.900	20.738	47.058	1.000	39.969	1072.144	86.050	298.774	12.400	62.000
26.000	20.741	47.055	1.000	40.111	1041.914	84.500	298.852	12.400	62.770
26.100	20.742	47.054	1.000	40.240	1031.561	83.701	298.875	12.400	65.187
26.200	20.740	47.054	1.000	40.359	1054.441	83.998	298.852	12.400	68.767
26.300	20.740	47.054	1.000	40.501	1033.642	84.511	298.823	12.400	72.364
26.400	20.740	47.053	1.000	40.602	1051.989	84.567	298.800	12.400	75.169
26.500	20.745	47.046	1.000	40.744	1029.670	84.961	298.780	12.400	80.336
26.600	20.753	47.032	1.000	40.850	1054.797	85.068	298.769	12.400	82.791
26.700	20.756	47.028	1.000	40.992	995.705	84.424	298.778	12.400	85.189
26.800	20.756	47.025	1.000	41.092	1032.582	83.826	298.820	12.400	86.386
26.900	20.756	47.024	1.000	41.237	991.298	83.823	298.811	12.400	87.955
27.000	20.757	47.025	1.000	41.335	1029.647	84.062	298.785	12.400	89.190
27.100	20.758	47.024	1.000	41.431	972.943	83.672	298.794	12.400	89.200
27.200	20.757	47.022	1.000	41.574	998.770	83.006	298.840	12.400	89.200
27.300	20.765	47.007	1.000	41.678	968.462	82.853	298.845	12.400	89.595
27.400	20.771	46.998	1.000	41.803	1001.357	83.187	298.805	12.400	89.998
27.500	20.771	46.996	1.000	41.920	972.795	83.504	298.784	12.400	90.000
27.600	20.771	46.994	1.000	42.017	999.359	83.679	298.776	12.400	90.000
27.700	20.771	46.994	1.000	42.142	974.435	83.874	298.741	12.400	90.000
27.800	20.771	46.995	1.000	42.261	988.315	84.234	298.721	12.400	90.000
27.900	20.774	46.992	1.000	42.361	952.066	83.597	298.745	12.400	90.000
28.000	20.782	46.977	1.000	42.486	971.718	82.792	298.775	12.400	90.000
28.100	20.789	46.967	1.000	42.602	954.593	83.019	298.763	12.400	90.000
28.200	20.791	46.967	1.000	42.702	971.838	83.293	298.757	12.400	90.000
28.300	20.793	46.967	1.000	42.802	943.131	83.224	298.725	12.400	90.000
28.400	20.793	46.966	1.000	42.924	946.846	82.132	298.767	12.400	90.000
28.500	20.791	46.965	1.000	43.023	924.632	81.857	298.791	12.400	90.000
28.600	20.791	46.963	1.000	43.139	940.491	81.999	298.762	12.400	90.000
28.700	20.800	46.954	1.000	43.237	918.833	81.895	298.777	12.400	90.000
28.800	20.811	46.941	1.000	43.333	939.543	81.950	298.763	12.400	90.000
28.900	20.815	46.935	1.000	43.460	921.546	82.277	298.737	12.400	90.000
29.000	20.816	46.934	1.000	43.577	939.822	82.626	298.715	12.400	90.000
29.100	20.817	46.934	1.000	43.676	927.551	82.937	298.684	12.400	90.000
29.200	20.817	46.934	1.000	43.771	940.385	83.019	298.669	12.400	90.000
29.300	20.816	46.932	1.000	43.870	907.190	82.536	298.696	12.400	93.161
29.400	20.823	46.921	1.000	43.970	914.198	81.977	298.713	12.400	99.843
29.500	20.835	46.908	1.000	44.066	893.615	81.892	298.710	12.400	100.000
29.600	20.839	46.905	1.000	44.163	920.136	82.054	298.699	12.400	100.000
29.700	20.841	46.902	1.000	44.303	893.285	82.176	298.684	12.400	100.000
29.800	20.841	46.901	1.000	44.406	907.856	82.350	298.668	12.400	100.000
29.900	20.842	46.902	1.000	44.505	875.892	82.019	298.677	12.400	100.000
30.000	20.841	46.900	1.000	44.601	891.556	81.390	298.704	12.400	100.000
30.100	20.845	46.896	1.000	44.673	852.164	80.637	298.734	12.400	100.000
30.200	20.859	46.880	1.000	44.769	871.838	79.958	298.771	12.400	100.000
30.300	20.868	46.871	1.000	44.864	835.395	79.325	298.796	12.400	100.000
30.400	20.870	46.869	1.000	44.944	858.408	79.154	298.794	12.400	100.000
30.500	20.872	46.868	1.000	45.040	838.387	79.518	298.776	12.400	100.000
30.600	20.871	46.867	1.000	45.138	865.864	79.879	298.753	12.400	100.000
30.700	20.870	46.867	1.000	45.234	840.710	80.098	298.723	12.400	100.000
30.800	20.873	46.864	1.000	45.332	856.584	79.961	298.732	12.400	100.000
30.900	20.889	46.849	1.000	45.431	840.501	79.961	298.739	12.400	100.000
31.000	20.897	46.838	1.000	45.531	846.026	79.939	298.721	12.400	100.000
31.100	20.901	46.834	1.000	45.627	843.001	79.909	298.720	12.400	100.000
31.200	20.903	46.833	1.000	45.725	836.933	79.954	298.714	12.400	100.000
31.300	20.904	46.832	1.000	45.820	836.417	79.489	298.715	12.400	100.000
31.400	20.904	46.833	1.000	45.902	805.462	78.756	298.749	12.400	100.000
31.500	20.903	46.831	1.000	45.970	816.987	78.577	298.763	12.400	100.000
31.600	20.916	46.818	1.000	46.064	808.365	78.789	298.757	12.400	100.000
31.700	20.930	46.802	1.000	46.162	816.436	78.862	298.750	12.400	100.000
31.800	20.936	46.798	1.000	46.259	795.348	78.936	298.742	12.400	100.000
31.900	20.937	46.794	1.000	46.359	828.473	79.298	298.699	12.400	100.000
32.000	20.938	46.796	1.000	46.430	800.171	79.118	298.699	12.400	100.000
32.100	20.939	46.794	1.000	46.505	816.513	78.975	298.697	12.400	100.000
32.200	20.939	46.792	1.000	46.599	786.254	78.413	298.734	12.400	100.000
32.300	20.949	46.781	1.000	46.696	784.243	77.544	298.769	12.400	100.000
32.400	20.969	46.765	1.000	46.748	788.355	77.748	298.747	12.400	100.000
32.500	20.975	46.758	1.000	46.842	780.921	77.913	298.739	12.400	100.000
32.600	20.978	46.754	1.000	46.942	795.330	78.165	298.720	12.400	100.000
32.700	20.979	46.753	1.000	47.017	774.382	77.378	298.748	12.400	100.000
32.800	20.979	46.753	1.000	47.092	761.565	75.792	298.850	12.400	100.000
32.900	20.979	46.753	1.000	47.188	745.848	75.917	298.835	12.400	100.000
33.000	20.981	46.748	1.000	47.286	765.364	76.181	298.805	12.400	100.000
33.100	21.005	46.726	1.000	47.338	747.896	76.442	298.771	12.400	100.000
33.200	21.017	46.715	1.000	47.432	759.582	76.626	298.768	12.400	100.000
33.300	21.022	46.711	1.000	47.529	757.551	76.629	298.757	12.400	100.000
33.400	21.023	46.711	1.000	47.581	753.623	76.402	298.758	12.400	100.000
33.500	21.023	46.709	1.000	47.676	758.958	76.335	298.751	12.400	100.000
33.600	21.023	46.709	1.000	47.746	743.171	76.536	298.741	12.400	100.000
33.700	21.027	46.704	1.000	47.823	762.750	76.897	298.710	12.400	100.000
33.800	21.049	46.682	1.000	47.919	737.950	77.223	298.681	12.400	100.000
33.900	21.061	46.667	1.000	47.989	759.380	77.267	298.677	12.400	100.000
34.000	21.066	46.662	1.000	48.066	746.623	77.197	298.675	12.400	100.000
34.100	21.069	46.659	1.000	48.164	743.405	76.773	298.706	12.400	100.000
34.200	21.069	46.659	1.000	48.215	730.880	75.695	298.757	12.400	100.000
34.300	21.068	46.659	1.000	48.308	721.931	75.376	298.770	12.400	100.000
34.400	21.069	46.659	1.000	48.361	735.732	75.808	298.741	12.002	100.000
34.500	21.086	46.639	1.000	48.456	722.678	76.196	298.710	12.000	100.000
34.600	21.108	46.615	1.000	48.528	740.784	76.298	298.703	12.000	100.000
34.700	21.116	46.607	1.000	48.604	722.516	75.948	298.714	12.000	100.000
34.800	21.118	46.604	1.000	48.674	735.786	75.993	298.693	12.000	100.000
34.900	21.121	46.603	1.000	48.751	706.149	75.371	298.725	12.000	100.000
35.000	21.120	46.603	1.000	48.802	695.129	74.627	298.747	12.000	100.000
35.100	21.120	46.601	1.000	48.896	698.437	74.111	298.776	12.000	100.000
35.200	21.134	46.587	1.000	48.966	689.797	73.908	298.781	12.000	100.000
35.300	21.161	46.561	1.000	49.043	711.023	73.976	298.782	12.000	100.000
35.400	21.171	46.552	1.000	49.112	684.980	74.304	298.756	12.000	100.000
35.500	21.174	46.547	1.000	49.189	705.763	74.721	298.720	12.000	100.000
35.600	21.176	46.545	1.000	49.240	697.463	75.084	298.692	12.000	100.000
35.700	21.175	46.544	1.000	49.334	696.754	74.965	298.690	12.000	100.000
35.800	21.176	46.545	1.000	49.387	704.671	74.839	298.701	12.000	100.000
35.900	21.181	46.538	1.000	49.453	689.128	75.078	298.679	12.000	100.000
36.000	21.216	46.506	1.000	49.529	702.870	75.423	298.663	12.000	100.000
36.100	21.231	46.487	1.000	49.597	684.202	75.516	298.642	12.000	100.000
36.200	21.237	46.483	1.000	49.677	702.674	75.748	298.624	12.000	100.000
36.300	21.237	46.480	1.000	49.728	693.428	75.346	298.648	12.000	100.000
36.400	21.238	46.479	1.000	49.819	679.609	74.612	298.668	12.000	100.000
36.500	21.238	46.480	1.000	49.872	675.424	74.525	298.683	12.000	100.000
36.600	21.242	46.474	1.000	49.941	657.016	73.816	298.717	12.000	100.000
36.700	21.273	46.438	1.000	50.028	674.403	73.946	298.702	12.000	100.000
36.800	21.290	46.419	1.000	50.079	655.683	73.409	298.721	12.000	100.000
36.900	21.297	46.411	1.000	50.146	662.536	73.453	298.718	12.000	100.000
37.000	21.298	46.410	1.000	50.225	657.834	73.635	298.707	12.000	100.000
37.100	21.300	46.409	1.000	50.276	629.246	72.630	298.742	12.000	100.000
37.200	21.300	46.409	1.000	50.341	640.551	71.764	298.788	12.000	100.000
37.300	21.301	46.408	1.000	50.393	629.677	71.590	298.792	12.000	100.000
37.400	21.320	46.380	1.000	50.467	638.630	71.665	298.791	12.000	100.000
37.500	21.351	46.347	1.000	50.521	638.387	72.084	298.747	12.000	100.000
37.600	21.362	46.336	1.000	50.585	634.080	72.426	298.724	12.000	100.000
37.700	21.364	46.332	1.000	50.638	642.824	72.011	298.740	12.000	100.000
37.800	21.366	46.331	1.000	50.712	626.986	72.001	298.732	12.000	100.000
37.900	21.367	46.329	1.000	50.763	636.259	72.331	298.711	12.000	100.000
38.000	21.367	46.328	1.000	50.831	629.220	72.542	298.713	12.000	100.000
38.100	21.386	46.307	1.000	50.907	636.383	72.664	298.694	12.000	100.000
38.200	21.420	46.269	1.000	50.958	644.040	72.401	298.694	12.000	100.000
38.300	21.432	46.255	1.000	51.027	624.933	72.552	298.691	12.000	100.000
38.400	21.435	46.248	1.000	51.076	641.823	72.936	298.667	12.000	100.000
38.500	21.437	46.247	1.000	51.151	628.928	73.179	298.634	12.000	100.000
38.600	21.438	46.247	1.000	51.203	628.128	72.166	298.686	12.000	100.000
38.700	21.437	46.246	1.000	51.251	618.830	71.736	298.692	12.000	100.000
38.800	21.438	46.246	1.000	51.318	600.875	71.309	298.717	12.000	100.000
38.900	21.438	46.247	1.000	51.368	625.145	71.573	298.698	12.000	100.000
39.000	21.437	46.246	1.000	51.444	608.752	71.243	298.725	12.000	100.000
39.100	21.435	46.247	1.000	51.495	609.749	70.692	298.744	12.000	100.000
39.200	21.438	46.247	1.000	51.544	613.307	71.057	298.711	12.000	100.000
39.300	21.459	46.218	1.000	51.613	601.648	71.494	298.679	12.000	100.000
39.400	21.496	46.173	1.000	51.664	615.382	71.216	298.689	12.000	100.000
39.500	21.509	46.157	1.000	51.739	611.563	71.122	298.702	12.000	100.000
39.600	21.515	46.150	1.000	51.791	612.159	71.523	298.660	12.000	100.000
39.700	21.515	46.149	1.000	51.840	610.300	71.734	298.643	12.000	100.000
39.800	21.516	46.148	1.000	51.907	599.499	71.423	298.662	12.000	100.000
39.900	21.517	46.148	1.000	51.955	617.049	71.505	298.656	12.000	100.000
40.000	21.533	46.120	1.000	52.006	607.922	71.960	298.631	12.000	100.000
40.100	21.573	46.072	1.000	52.082	610.891	72.162	298.603	12.000	100.000
40.200	21.588	46.051	1.000	52.106	615.051	71.977	298.605	12.000	100.000
40.300	21.593	46.045	1.000	52.177	589.518	70.946	298.678	12.000	100.000
40.400	21.594	46.042	1.000	52.228	587.539	70.699	298.681	12.000	100.000
40.500	21.595	46.041	1.000	52.278	579.729	70.040	298.699	12.000	100.000
40.600	21.595	46.041	1.000	52.326	581.866	69.693	298.711	12.000	100.000
40.700	21.599	46.033	1.000	52.393	585.199	69.591	298.721	12.000	100.000
40.800	21.639	45.978	1.000	52.444	566.991	69.673	298.717	12.000	100.000
40.900	21.663	45.946	1.000	52.491	578.660	69.662	298.694	12.000	100.000
41.000	21.673	45.933	1.000	52.541	582.085	69.398	298.718	12.000	100.000
41.100	21.675	45.930	1.000	52.590	572.267	69.712	298.694	12.000	100.000
41.200	21.674	45.927	1.000	52.640	584.771	70.295	298.643	12.000	100.000
41.300	21.678	45.928	1.000	52.714	571.715	70.175	298.652	12.000	100.000
41.400	21.680	45.922	1.000	52.765	551.566	68.594	298.721	12.000	100.000
41.500	21.717	45.866	1.000	52.788	553.273	67.722	298.773	12.000	100.000
41.600	21.746	45.826	1.000	52.835	545.140	68.070	298.761	12.000	100.000
41.700	21.755	45.814	1.000	52.883	555.043	67.818	298.771	12.000	100.000
41.800	21.758	45.809	1.000	52.929	552.983	67.700	298.768	12.000	100.000
41.900	21.758	45.806	1.000	52.979	551.582	68.154	298.738	12.000	100.000
42.000	21.758	45.808	1.000	53.027	560.402	68.357	298.727	12.000	100.000
42.100	21.761	45.805	1.000	53.078	540.055	67.813	298.740	12.000	100.000
42.200	21.780	45.771	1.000	53.142	547.018	67.706	298.734	12.000	100.000
42.300	21.823	45.711	1.000	53.178	549.471	68.126	298.715	12.000	100.000
42.400	21.839	45.688	1.000	53.225	545.793	68.659	298.700	12.000	100.000
42.500	21.845	45.683	1.000	53.300	557.967	67.960	298.717	12.000	100.000
42.600	21.844	45.681	1.000	53.351	552.060	68.489	298.684	12.000	100.000
42.700	21.845	45.678	1.000	53.375	553.605	69.112	298.647	12.000	100.000
42.800	21.846	45.677	1.000	53.419	563.956	68.598	298.675	12.000	100.000
42.900	21.863	45.645	1.000	53.470	544.470	68.364	298.674	12.000	100.000
43.000	21.906	45.581	1.000	53.518	549.932	69.054	298.641	12.000	100.000
43.100	21.924	45.557	1.000	53.568	548.750	68.865	298.635	12.000	100.000
43.200	21.930	45.548	1.000	53.615	521.161	67.104	298.728	12.000	100.000
43.300	21.931	45.546	1.000	53.665	531.872	66.638	298.754	12.000	100.000
43.400	21.932	45.545	1.000	53.694	527.584	66.745	298.734	12.000	100.000
43.500	21.932	45.545	1.000	53.742	525.927	66.448	298.746	12.000	100.000
43.600	21.940	45.535	1.000	53.790	532.579	66.380	298.756	12.000	100.000
43.700	21.982	45.464	1.000	53.840	515.638	66.894	298.720	12.000	100.000
43.800	22.009	45.422	1.000	53.888	529.649	66.831	298.711	12.000	100.000
43.900	22.018	45.410	1.000	53.910	526.212	66.553	298.722	12.000	100.000
44.000	22.022	45.406	1.000	53.956	523.727	66.915	298.693	12.000	100.000
44.100	22.021	45.404	1.000	54.003	529.422	66.937	298.692	12.000	100.000
44.200	22.021	45.403	1.000	54.055	513.339	66.523	298.719	12.000	100.000
44.300	22.024	45.395	1.000	54.102	520.364	66.828	298.691	12.000	100.000
44.400	22.066	45.324	1.000	54.154	530.924	67.273	298.668	12.000	100.000
44.500	22.095	45.279	1.000	54.183	520.508	66.970	298.682	12.000	100.000
44.600	22.106	45.262	1.000	54.232	500.224	65.925	298.728	12.000	100.000
44.700	22.110	45.257	1.000	54.253	501.285	64.592	298.795	12.000	100.000
44.800	22.113	45.255	1.000	54.298	495.852	65.280	298.760	12.000	100.000
44.900	22.111	45.254	1.000	54.348	499.458	64.391	298.796	12.000	100.000
45.000	22.112	45.255	1.000	54.380	493.715	65.015	298.776	12.000	100.000
45.100	22.133	45.208	1.000	54.427	495.192	64.915	298.781	12.000	100.000
45.200	22.181	45.139	1.000	54.449	504.181	64.571	298.794	12.000	100.000
45.300	22.198	45.113	1.000	54.495	489.226	65.339	298.744	12.000	100.000
45.400	22.203	45.105	1.000	54.542	496.954	65.286	298.745	12.000	100.000
45.500	22.204	45.101	1.000	54.592	497.485	64.877	298.751	12.000	100.000
45.600	22.204	45.100	1.000	54.623	495.480	65.046	298.741	12.000	100.000
45.700	22.206	45.100	1.000	54.672	492.244	65.393	298.714	12.000	100.000
45.800	22.226	45.062	1.000	54.694	507.577	64.999	298.725	12.000	100.000
45.900	22.273	44.989	1.000	54.743	490.333	65.118	298.719	12.000	100.000
46.000	22.289	44.955	1.000	54.790	502.301	65.537	298.702	12.000	100.000
46.100	22.294	44.947	1.000	54.821	498.689	65.172	298.705	12.000	100.000
46.200	22.298	44.945	1.000	54.869	490.506	65.234	298.695	12.000	100.000
46.300	22.296	44.944	1.000	54.918	505.559	65.587	298.672	12.000	100.000
46.400	22.297	44.942	1.000	54.938	491.935	65.122	298.697	12.000	100.000
46.500	22.302	44.929	1.000	54.985	483.844	64.890	298.728	12.000	100.000
46.600	22.351	44.847	1.000	55.017	483.276	64.668	298.731	12.000	100.000
46.700	22.380	44.802	1.000	55.037	449.491	63.166	298.803	12.000	100.000
46.800	22.389	44.788	1.000	55.084	469.469	62.292	298.844	12.000	100.000
46.900	22.392	44.782	1.000	55.133	469.260	62.967	298.786	12.000	100.000
47.000	22.392	44.780	1.000	55.162	454.264	63.192	298.777	12.000	100.000
47.100	22.392	44.782	1.000	55.185	480.839	62.999	298.797	12.000	100.000
47.200	22.397	44.772	1.000	55.226	469.780	63.178	298.778	12.000	100.000
47.300	22.443	44.687	1.000	55.260	449.641	63.158	298.765	12.000	100.000
47.400	22.475	44.633	1.000	55.309	474.458	62.954	298.777	12.000	100.000
47.500	22.483	44.618	1.000	55.330	472.711	63.444	298.748	12.000	100.000
47.600	22.487	44.612	1.000	55.377	450.985	63.473	298.749	12.000	100.000
47.700	22.489	44.610	1.000	55.408	475.793	63.222	298.754	12.000	100.000
47.800	22.489	44.610	1.000	55.427	477.125	63.489	298.728	12.000	100.000
47.900	22.489	44.608	1.000	55.470	452.509	63.463	298.726	12.000	100.000
48.000	22.514	44.553	1.000	55.504	463.348	63.076	298.746	12.000	100.000
48.100	22.559	44.476	1.000	55.550	475.310	63.453	298.716	12.000	100.000
48.200	22.576	44.448	1.000	55.570	462.824	63.412	298.702	12.000	100.000
48.300	22.582	44.439	1.000	55.583	455.566	63.065	298.720	12.000	100.000
48.400	22.580	44.437	1.000	55.572	399.290	58.392	298.910	12.000	100.000
48.500	22.583	44.437	1.000	55.527	188.517	42.192	299.654	12.000	100.000
48.600	22.584	44.434	1.000	55.443	-46.038	32.538	300.425	12.000	100.000
48.700	22.605	44.389	1.000	55.390	-200.823	12.534	301.556	12.000	100.000
48.800	22.654	44.303	1.000	55.333	-271.029	2.057	302.178	12.000	100.000
48.900	22.671	44.271	1.000	55.249	-273.931	-1.479	302.406	12.000	100.000
49.000	22.677	44.262	1.000	55.197	-266.798	-3.635	302.554	12.000	100.000
49.100	22.679	44.258	1.000	55.139	-285.264	-2.978	302.529	12.000	100.000
49.200	22.680	44.257	1.000	55.054	-276.465	-3.977	302.602	12.000	100.000
49.300	22.680	44.256	1.000	55.002	-274.973	-3.487	302.603	12.000	100.000
49.400	22.685	44.241	1.000	54.953	-284.782	-3.413	302.629	12.000	100.000
49.500	22.732	44.150	1.000	54.893	-273.970	-3.867	302.678	12.000	100.000
49.600	22.759	44.098	1.000	54.807	-276.533	-3.240	302.646	12.000	100.000
49.700	22.767	44.083	1.000	54.758	-281.848	-3.325	302.663	12.000	100.000
49.800	22.770	44.076	1.000	54.698	-277.419	-3.645	302.700	12.000	100.000
49.900	22.769	44.075	1.000	54.645	-282.060	-3.657	302.706	12.000	100.000
50.000	22.768	44.075	1.000	54.562	-268.287	-3.216	302.694	12.000	100.000
50.100	22.772	44.066	1.000	54.511	-277.466	-3.388	302.734	12.000	100.000
50.200	22.819	43.976	1.000	54.452	-265.694	-3.498	302.738	12.000	100.000
50.300	22.852	43.917	1.000	54.403	-275.222	-3.089	302.732	12.000	100.000
50.400	22.861	43.898	1.000	54.319	-279.023	-3.409	302.762	12.000	100.000
50.500	22.865	43.891	1.000	54.267	-267.869	-3.514	302.778	12.000	100.000
50.600	22.868	43.887	1.000	54.209	-271.156	-3.128	302.792	12.000	100.000
50.700	22.865	43.887	1.000	54.159	-280.621	-3.012	302.779	12.000	100.000
50.800	22.867	43.887	1.000	54.076	-265.924	-3.956	302.834	12.000	100.000
50.900	22.891	43.835	1.000	54.026	-285.465	-3.164	302.815	12.000	100.000
51.000	22.936	43.751	1.000	53.966	-273.551	-2.596	302.779	12.000	100.000
51.100	22.948	43.720	1.000	53.914	-273.558	-3.884	302.858	12.000	100.000
51.200	22.952	43.712	1.000	53.832	-277.966	-3.435	302.853	12.000	100.000
51.300	22.954	43.709	1.000	53.779	-269.928	-2.773	302.799	12.000	100.000
51.400	22.956	43.708	1.000	53.720	-269.503	-3.553	302.870	12.000	100.000
51.500	22.955	43.706	1.000	53.672	-272.403	-3.238	302.865	12.000	100.000
51.600	22.976	43.658	1.000	53.588	-268.259	-2.679	302.837	12.000	100.000
51.700	23.019	43.570	1.000	53.534	-277.441	-3.279	302.882	12.000	100.000
51.800	23.036	43.538	1.000	53.476	-275.053	-3.441	302.897	12.000	100.000
51.900	23.042	43.525	1.000	53.427	-268.531	-3.223	302.890	12.000	100.000
52.000	23.044	43.524	1.000	53.378	-287.579	-2.985	302.894	12.000	100.000
52.100	23.043	43.524	1.000	53.294	-267.432	-3.514	302.917	12.000	100.000
52.200	23.045	43.522	1.000	53.238	-268.113	-3.453	302.924	12.000	100.000
52.300	23.050	43.507	1.000	53.181	-277.425	-2.932	302.910	12.000	100.000
52.400	23.093	43.414	1.000	53.133	-273.866	-3.502	302.956	12.000	100.000
52.500	23.121	43.360	1.000	53.048	-280.659	-3.811	302.986	12.000	100.000
52.600	23.130	43.345	1.000	52.987	-276.213	-3.334	302.936	12.000	100.000
52.700	23.132	43.339	1.000	52.936	-267.578	-3.007	302.952	12.000	100.000
52.800	23.134	43.337	1.000	52.855	-285.600	-3.030	302.957	12.000	100.000
52.900	23.134	43.336	1.000	52.803	-275.319	-3.812	303.021	12.000	100.000
53.000	23.136	43.328	1.000	52.753	-269.612	-3.411	302.990	12.000	100.000
53.100	23.180	43.238	1.000	52.706	-270.510	-2.750	302.972	12.000	100.000
53.200	23.205	43.182	1.000	52.648	-263.679	-3.556	303.021	12.000	100.000
53.300	23.216	43.160	1.000	52.599	-281.203	-3.483	303.010	12.000	100.000
53.400	23.219	43.155	1.000	52.511	-278.169	-3.235	303.014	12.000	100.000
53.500	23.218	43.154	1.000	52.451	-266.044	-3.066	303.025	12.000	100.000
53.600	23.219	43.151	1.000	52.402	-274.054	-4.227	303.068	12.000	100.000
53.700	23.221	43.149	1.000	52.353	-265.049	-3.187	303.010	12.000	100.000
53.800	23.243	43.090	1.000	52.269	-278.167	-3.067	303.010	12.000	100.000
53.900	23.283	43.008	1.000	52.219	-283.248	-3.406	303.033	12.000	100.000
54.000	23.296	42.977	1.000	52.169	-271.532	-3.671	303.064	12.000	100.000
54.100	23.303	42.967	1.000	52.111	-278.297	-3.525	303.068	12.000	100.000
54.200	23.303	42.965	1.000	52.060	-271.781	-3.274	303.068	12.000	100.000
54.300	23.302	42.963	1.000	51.974	-276.685	-3.647	303.072	12.000	100.000
54.400	23.304	42.963	1.000	51.924	-277.946	-3.806	303.095	12.000	100.000
54.500	23.319	42.916	1.000	51.876	-268.728	-3.464	303.080	12.000	99.205
54.600	23.362	42.826	1.000	51.818	-282.755	-3.075	303.057	12.000	68.461
54.700	23.381	42.793	1.000	51.768	-267.212	-3.432	303.087	12.000	34.296
54.800	23.384	42.783	1.000	51.683	-276.366	-3.577	303.107	12.000	14.201
54.900	23.385	42.781	1.000	51.632	-274.066	-3.345	303.107	12.000	0.333
55.000	23.386	42.778	1.000	51.572	-271.583	-3.045	303.076	12.000	0.000
55.100	23.385	42.777	1.000	51.522	-291.139	-3.671	303.141	12.000	0.000
55.200	23.391	42.765	1.000	51.439	-279.186	-4.501	303.184	12.000	0.000
55.300	23.431	42.669	1.000	51.386	-274.074	-4.008	303.173	12.000	0.000
55.400	23.456	42.618	1.000	51.336	-276.557	-3.418	303.146	12.000	0.000
55.500	23.465	42.600	1.000	51.280	-271.855	-3.345	303.146	12.000	0.000
55.600	23.468	42.595	1.000	51.229	-291.133	-4.481	303.215	12.000	0.000
55.700	23.468	42.592	1.000	51.143	-278.890	-3.902	303.170	12.000	0.000
55.800	23.468	42.592	1.000	51.093	-279.188	-3.692	303.165	12.000	0.000
55.900	23.472	42.581	1.000	51.038	-282.167	-3.878	303.188	12.000	0.000
56.000	23.507	42.491	1.000	50.985	-272.315	-4.004	303.204	12.000	0.000
56.100	23.533	42.433	1.000	50.899	-293.356	-4.100	303.234	12.000	0.000
56.200	23.541	42.416	1.000	50.850	-278.249	-3.970	303.205	12.000	0.000
56.300	23.543	42.410	1.000	50.799	-283.003	-3.695	303.193	12.000	0.000
56.400	23.545	42.408	1.000	50.743	-284.704	-4.119	303.222	12.000	0.000
56.500	23.545	42.408	1.000	50.691	-272.275	-4.223	303.238	12.000	0.000
56.600	23.545	42.407	1.000	50.606	-289.061	-3.792	303.224	12.000	0.000
56.700	23.565	42.349	1.000	50.557	-279.920	-3.992	303.238	12.000	0.000
56.800	23.600	42.268	1.000	50.508	-291.283	-4.200	303.276	12.000	0.000
56.900	23.612	42.238	1.000	50.450	-282.122	-4.336	303.270	12.000	0.000
57.000	23.617	42.229	1.000	50.398	-282.423	-4.437	303.262	12.000	0.000
57.100	23.619	42.226	1.000	50.315	-309.659	-3.851	303.251	12.000	0.000
57.200	23.617	42.224	1.000	50.230	-356.428	-3.500	303.258	12.000	0.000
57.300	23.617	42.223	1.000	50.119	-466.675	-7.880	303.485	12.000	0.000
57.400	23.633	42.179	1.000	50.018	-536.700	-14.524	303.873	12.000	0.000
57.500	23.672	42.092	1.000	49.869	-668.246	-20.860	304.235	12.000	0.000
57.600	23.686	42.061	1.000	49.730	-777.140	-27.386	304.618	12.000	0.000
57.700	23.690	42.047	1.000	49.581	-781.539	-33.772	304.975	12.000	0.000
57.800	23.691	42.046	1.000	49.438	-823.967	-39.083	305.281	12.000	0.000
57.900	23.693	42.045	1.000	49.291	-896.527	-43.952	305.565	12.000	0.000
58.000	23.693	42.043	1.000	49.146	-1003.582	-51.040	305.999	12.000	0.000
58.100	23.696	42.029	1.000	48.991	-1042.500	-54.260	306.141	12.000	0.000
58.200	23.732	41.937	1.000	48.808	-1076.861	-57.870	306.388	12.000	0.000
58.300	23.751	41.889	1.000	48.613	-1134.903	-61.236	306.583	12.000	0.000
58.400	23.758	41.873	1.000	48.416	-1155.943	-64.251	306.783	12.000	0.000
58.500	23.759	41.866	1.000	48.222	-1240.607	-67.984	307.010	12.000	0.000
58.600	23.761	41.865	1.000	48.027	-1321.380	-73.287	307.312	12.000	0.000
58.700	23.760	41.865	1.000	47.784	-1445.712	-79.893	307.689	12.000	0.000
58.800	23.763	41.854	1.000	47.587	-1453.934	-84.008	308.006	12.000	0.000
58.900	23.792	41.772	1.000	47.359	-1447.903	-84.920	308.116	12.000	0.000
59.000	23.814	41.716	1.000	47.148	-1458.276	-84.745	308.147	12.000	0.000
59.100	23.820	41.697	1.000	46.914	-1462.692	-84.454	308.141	12.000	0.000
59.200	23.824	41.693	1.000	46.708	-1522.126	-85.353	308.236	12.000	0.000
59.300	23.824	41.691	1.000	46.480	-1513.902	-87.178	308.358	12.000	0.000
59.400	23.824	41.690	1.000	46.275	-1541.465	-87.545	308.420	12.000	0.000
59.500	23.824	41.688	1.000	46.040	-1517.083	-87.282	308.428	12.000	0.000
59.600	23.843	41.637	1.000	45.836	-1532.404	-86.945	308.443	12.000	0.000
59.700	23.875	41.555	1.000	45.636	-1524.400	-86.811	308.469	12.000	0.000
59.800	23.883	41.528	1.000	45.394	-1532.316	-86.346	308.449	12.000	0.000
59.900	23.889	41.518	1.000	45.159	-1536.756	-86.308	308.466	12.000	0.000
60.000	23.888	41.514	1.000	44.953	-1563.172	-86.907	308.543	12.000	0.000
60.100	23.889	41.515	1.000	44.712	-1565.077	-87.130	308.579	12.000	0.000
60.200	23.889	41.512	1.000	44.515	-1556.991	-86.888	308.580	12.000	0.000
60.300	23.901	41.470	1.000	44.272	-1569.028	-86.423	308.595	12.000	0.000
60.400	23.929	41.390	1.000	44.074	-1554.325	-85.977	308.598	12.000	0.000
60.500	23.940	41.360	1.000	43.832	-1567.691	-85.460	308.576	12.000	0.000
60.600	23.946	41.350	1.000	43.637	-1559.237	-85.109	308.580	12.000	0.000
60.700	23.947	41.347	1.000	43.395	-1577.044	-84.719	308.579	12.000	0.000
60.800	23.945	41.347	1.000	43.196	-1551.370	-84.299	308.573	12.000	0.000
60.900	23.946	41.346	1.000	42.974	-1567.134	-83.747	308.579	12.000	0.000
61.000	23.948	41.333	1.000	42.728	-1554.338	-83.332	308.573	12.000	0.000
61.100	23.977	41.248	1.000	42.516	-1575.896	-83.068	308.580	12.000	0.000
61.200	23.994	41.202	1.000	42.287	-1551.153	-82.789	308.579	12.000	0.000
61.300	23.999	41.187	1.000	42.079	-1576.245	-82.282	308.577	12.000	0.000
61.400	24.002	41.180	1.000	41.836	-1556.886	-81.919	308.580	12.000	0.000
61.500	24.001	41.181	1.000	41.637	-1573.837	-81.464	308.574	12.000	0.000
61.600	24.002	41.180	1.000	41.396	-1551.679	-80.775	308.556	12.000	0.000
61.700	24.004	41.173	1.000	41.198	-1577.444	-80.425	308.549	12.000	0.000
61.800	24.028	41.094	1.000	40.957	-1552.640	-79.985	308.529	12.000	0.000
61.900	24.043	41.046	1.000	40.758	-1566.085	-79.407	308.522	12.000	0.000
62.000	24.047	41.027	1.000	40.527	-1553.943	-78.768	308.502	12.000	0.000
62.100	24.051	41.021	1.000	40.324	-1560.454	-78.208	308.494	12.000	0.000
62.200	24.051	41.019	1.000	40.111	-1557.137	-77.805	308.471	12.000	0.000
62.300	24.050	41.019	1.000	39.883	-1552.573	-77.602	308.475	12.000	0.000
62.400	24.052	41.018	1.000	39.649	-1565.204	-77.180	308.480	12.000	0.000
62.500	24.063	40.972	1.000	39.445	-1550.047	-76.717	308.461	12.000	0.000
62.600	24.087	40.901	1.000	39.248	-1575.229	-76.273	308.453	12.000	0.000
62.700	24.093	40.874	1.000	39.004	-1538.223	-75.791	308.445	12.000	0.000
62.800	24.096	40.864	1.000	38.806	-1577.237	-75.319	308.433	12.000	0.000
62.900	24.096	40.862	1.000	38.578	-1532.162	-74.825	308.420	12.000	0.000
63.000	24.096	40.862	1.000	38.367	-1575.090	-74.267	308.405	12.000	0.000
63.100	24.096	40.861	1.000	38.172	-1541.403	-73.813	308.400	12.000	0.000
63.200	24.104	40.823	1.000	37.929	-1560.337	-73.429	308.383	12.000	0.000
63.300	24.127	40.750	1.000	37.732	-1538.357	-72.994	308.377	12.000	0.000
63.400	24.135	40.724	1.000	37.536	-1528.718	-72.271	308.368	12.000	0.000
63.500	24.137	40.715	1.000	37.291	-1549.700	-71.403	308.309	12.000	0.000
63.600	24.138	40.712	1.000	37.091	-1515.175	-70.844	308.290	12.000	0.000
63.700	24.140	40.712	1.000	36.898	-1559.398	-70.189	308.284	12.000	0.000
63.800	24.137	40.711	1.000	36.656	-1496.664	-69.220	308.240	12.000	0.000
63.900	24.141	40.702	1.000	36.459	-1523.614	-68.476	308.215	12.000	0.000
64.000	24.160	40.627	1.000	36.265	-1501.750	-68.142	308.192	12.000	0.000
64.100	24.172	40.587	1.000	36.035	-1515.766	-67.846	308.191	12.000	0.000
64.200	24.176	40.573	1.000	35.825	-1514.426	-67.158	308.175	12.000	0.000
64.300	24.177	40.568	1.000	35.628	-1471.544	-66.270	308.131	12.000	0.000
64.400	24.177	40.568	1.000	35.433	-1518.935	-65.968	308.119	12.000	0.000
64.500	24.176	40.565	1.000	35.238	-1475.200	-65.444	308.096	12.000	0.000
64.600	24.179	40.558	1.000	35.009	-1501.182	-64.924	308.087	12.000	0.000
64.700	24.194	40.495	1.000	34.800	-1486.903	-64.371	308.068	12.000	0.000
64.800	24.204	40.450	1.000	34.605	-1481.898	-63.890	308.042	12.000	0.000
64.900	24.209	40.435	1.000	34.407	-1507.710	-63.497	308.034	12.000	0.000
65.000	24.210	40.429	1.000	34.215	-1458.960	-62.991	308.019	12.000	0.000
65.100	24.213	40.428	1.000	34.018	-1496.666	-62.476	307.997	12.000	0.000
65.200	24.210	40.429	1.000	33.780	-1473.179	-62.060	307.990	12.000	0.000
65.300	24.211	40.426	1.000	33.581	-1473.839	-61.561	307.964	12.000	0.000
65.400	24.219	40.386	1.000	33.388	-1507.932	-61.166	307.956	12.000	0.000
65.500	24.233	40.326	1.000	33.191	-1455.681	-60.912	307.953	12.000	0.000
65.600	24.239	40.304	1.000	32.996	-1493.737	-60.492	307.934	12.000	0.000
65.700	24.241	40.298	1.000	32.754	-1475.950	-60.196	307.932	12.000	0.000
65.800	24.241	40.296	1.000	32.552	-1474.281	-59.862	307.928	12.000	0.000
65.900	24.241	40.296	1.000	32.377	-1502.375	-59.384	307.904	12.000	0.000
66.000	24.242	40.295	1.000	32.163	-1453.030	-58.887	307.910	12.000	0.000
66.100	24.246	40.262	1.000	31.971	-1484.951	-58.464	307.887	12.000	0.000
66.200	24.256	40.201	1.000	31.772	-1490.020	-58.211	307.877	12.000	0.000
66.300	24.262	40.178	1.000	31.578	-1451.939	-57.679	307.857	12.000	0.000
66.400	24.264	40.169	1.000	31.337	-1498.079	-57.088	307.843	12.000	0.000
66.500	24.265	40.167	1.000	31.140	-1472.081	-57.116	307.844	12.000	0.000
66.600	24.265	40.166	1.000	30.945	-1459.639	-56.833	307.834	12.000	0.000
66.700	24.264	40.166	1.000	30.750	-1501.665	-56.279	307.816	12.000	0.000
66.800	24.265	40.157	1.000	30.559	-1459.892	-55.873	307.804	12.000	0.000
66.900	24.278	40.096	1.000	30.364	-1475.422	-55.517	307.789	12.000	0.000
67.000	24.282	40.060	1.000	30.166	-1496.425	-55.093	307.777	12.000	0.000
67.100	24.284	40.048	1.000	29.970	-1445.014	-54.642	307.761	12.000	0.000
67.200	24.286	40.044	1.000	29.775	-1486.427	-54.167	307.741	12.000	0.000
67.300	24.285	40.043	1.000	29.580	-1489.231	-53.828	307.728	12.000	0.000
67.400	24.284	40.043	1.000	29.337	-1446.221	-53.626	307.737	12.000	0.000
67.500	24.285	40.036	1.000	29.138	-1496.719	-53.370	307.731	12.000	0.000
67.600	24.291	39.982	1.000	28.945	-1485.169	-52.911	307.700	12.000	0.000
67.700	24.297	39.944	1.000	28.750	-1443.411	-52.477	307.676	12.000	0.000
67.800	24.299	39.933	1.000	28.555	-1492.911	-52.101	307.674	12.000	0.000
67.900	24.299	39.928	1.000	28.364	-1477.059	-51.656	307.651	12.000	0.000
68.000	24.301	39.928	1.000	28.162	-1443.701	-51.179	307.644	12.000	0.000
68.100	24.298	39.928	1.000	27.966	-1486.856	-50.825	307.629	12.000	0.000
68.200	24.300	39.926	1.000	27.774	-1476.376	-50.405	307.625	12.000	0.000
68.300	24.302	39.893	1.000	27.580	-1446.720	-50.005	307.609	12.000	0.000
68.400	24.304	39.844	1.000	27.383	-1489.620	-49.792	307.602	12.000	0.000
68.500	24.307	39.829	1.000	27.188	-1481.291	-49.449	307.582	12.000	0.000
68.600	24.308	39.820	1.000	26.994	-1442.297	-49.147	307.561	12.000	0.000
68.700	24.308	39.821	1.000	26.798	-1484.844	-48.701	307.550	12.000	0.000
68.800	24.309	39.819	1.000	26.600	-1484.041	-48.360	307.546	12.000	0.000
68.900	24.309	39.819	1.000	26.370	-1447.021	-47.898	307.533	12.000	0.000
69.000	24.310	39.793	1.000	26.206	-1471.596	-47.512	307.502	12.000	0.000
69.100	24.313	39.746	1.000	25.969	-1488.030	-47.160	307.491	12.000	0.000
69.200	24.313	39.724	1.000	25.774	-1452.127	-46.689	307.483	12.000	0.000
69.300	24.314	39.719	1.000	25.580	-1455.588	-46.294	307.471	12.000	0.000
69.400	24.314	39.715	1.000	25.380	-1488.917	-45.923	307.454	12.000	0.000
69.500	24.315	39.716	1.000	25.188	-1462.273	-45.541	307.436	12.000	0.000
69.600	24.315	39.716	1.000	24.988	-1446.504	-45.329	307.422	12.000	0.000
69.700	24.314	39.708	1.000	24.803	-1485.543	-44.902	307.412	12.000	0.000
69.800	24.315	39.661	1.000	24.600	-1470.313	-44.396	307.397	12.000	0.000
69.900	24.315	39.637	1.000	24.407	-1444.941	-44.235	307.395	12.000	0.000
70.000	24.314	39.627	1.000	24.244	-1460.836	-43.688	307.366	12.000	0.000
70.100	24.314	39.624	1.000	24.019	-1486.039	-43.349	307.340	12.000	0.000
70.200	24.314	39.623	1.000	23.819	-1452.083	-42.892	307.346	12.000	0.000
70.300	24.313	39.621	1.000	23.625	-1435.034	-42.436	307.329	12.000	0.000
70.400	24.313	39.616	1.000	23.439	-1478.491	-42.198	307.319	12.000	0.000
70.500	24.311	39.575	1.000	23.234	-1468.620	-41.706	307.279	12.000	0.000
70.600	24.310	39.548	1.000	23.046	-1446.266	-41.442	307.260	12.000	0.000
70.700	24.310	39.539	1.000	22.887	-1444.792	-41.264	307.259	12.000	0.000
70.800	24.310	39.537	1.000	22.662	-1487.302	-40.912	307.253	12.000	0.000
70.900	24.309	39.535	1.000	22.516	-1464.072	-40.513	307.230	12.000	0.000
71.000	24.310	39.534	1.000	22.307	-1428.823	-40.039	307.192	12.000	0.000
71.100	24.310	39.534	1.000	22.111	-1452.696	-39.556	307.180	12.000	0.000
71.200	24.306	39.511	1.000	21.912	-1471.289	-39.113	307.167	12.000	0.000
71.300	24.302	39.476	1.000	21.721	-1443.471	-38.731	307.146	12.000	0.000
71.400	24.302	39.462	1.000	21.526	-1425.233	-38.322	307.118	12.000	0.000
71.500	24.300	39.458	1.000	21.329	-1454.684	-37.885	307.107	12.000	0.000
71.600	24.299	39.457	1.000	21.135	-1464.470	-37.534	307.095	12.000	0.000
71.700	24.300	39.456	1.000	20.942	-1437.744	-37.257	307.086	12.000	0.000
71.800	24.299	39.455	1.000	20.746	-1420.426	-36.991	307.085	12.000	0.000
71.900	24.298	39.438	1.000	20.553	-1448.703	-36.385	307.062	12.000	0.000
72.000	24.293	39.403	1.000	20.355	-1461.906	-36.130	307.039	12.000	0.000
72.100	24.291	39.389	1.000	20.156	-1443.517	-35.745	307.035	12.000	0.000
72.200	24.288	39.385	1.000	19.963	-1418.372	-35.437	307.008	12.000	0.000
72.300	24.289	39.384	1.000	19.768	-1443.191	-34.963	306.985	12.000	0.000
72.400	24.289	39.384	1.000	19.572	-1469.604	-34.763	306.982	12.000	0.000
72.500	24.288	39.384	1.000	19.416	-1439.528	-34.160	306.952	12.000	0.000
72.600	24.288	39.378	1.000	19.231	-1431.996	-33.976	306.961	12.000	0.000
72.700	24.281	39.347	1.000	19.034	-1422.073	-33.364	306.913	12.000	0.000
72.800	24.278	39.328	1.000	18.841	-1461.513	-33.226	306.906	12.000	0.000
72.900	24.274	39.321	1.000	18.650	-1439.117	-32.929	306.897	12.000	0.000
73.000	24.274	39.320	1.000	18.455	-1435.349	-32.540	306.881	12.000	0.000
73.100	24.272	39.318	1.000	18.260	-1411.210	-32.119	306.861	12.000	0.000
73.200	24.274	39.320	1.000	18.066	-1426.160	-31.685	306.843	12.000	0.000
73.300	24.274	39.316	1.000	17.905	-1450.198	-31.265	306.829	12.000	0.000
73.400	24.264	39.290	1.000	17.713	-1423.994	-30.943	306.799	12.386	0.000
73.500	24.258	39.272	1.000	17.527	-1426.692	-30.555	306.778	12.400	0.000
73.600	24.255	39.266	1.000	17.333	-1404.223	-30.162	306.767	12.400	0.000
73.700	24.254	39.264	1.000	17.138	-1437.836	-29.712	306.741	12.400	0.000
73.800	24.252	39.264	1.000	16.941	-1429.557	-29.536	306.721	12.400	0.000
73.900	24.254	39.264	1.000	16.747	-1408.538	-28.926	306.695	12.400	0.000
74.000	24.253	39.264	1.000	16.596	-1412.691	-28.475	306.682	12.400	0.000
74.100	24.250	39.252	1.000	16.407	-1383.683	-28.020	306.676	12.400	0.000
74.200	24.238	39.228	1.000	16.214	-1415.784	-27.322	306.636	12.400	0.000
74.300	24.235	39.220	1.000	16.049	-1415.490	-27.209	306.635	12.400	0.000
74.400	24.233	39.217	1.000	15.867	-1383.524	-26.539	306.608	12.400	0.000
74.500	24.233	39.215	1.000	15.669	-1393.261	-26.033	306.578	12.400	0.000
74.600	24.231	39.214	1.000	15.476	-1372.549	-25.684	306.556	12.400	0.000
74.700	24.232	39.213	1.000	15.279	-1385.549	-25.130	306.523	12.400	0.000
74.800	24.225	39.205	1.000	15.131	-1419.707	-25.081	306.527	12.400	0.000
74.900	24.213	39.184	1.000	14.939	-1375.923	-24.742	306.495	12.400	0.000
75.000	24.210	39.178	1.000	14.746	-1370.655	-24.136	306.461	12.400	0.000
75.100	24.207	39.175	1.000	14.595	-1383.384	-23.746	306.438	12.400	0.000
75.200	24.207	39.175	1.000	14.402	-1361.062	-23.365	306.438	12.400	0.000
75.300	24.207	39.174	1.000	14.206	-1376.815	-22.836	306.414	12.400	0.000
75.400	24.207	39.174	1.000	14.055	-1384.235	-22.470	306.387	12.400	0.000
75.500	24.205	39.171	1.000	13.865	-1363.098	-21.999	306.360	12.400	0.000
75.600	24.191	39.152	1.000	13.667	-1359.221	-21.503	306.334	12.400	0.000
75.700	24.185	39.143	1.000	13.516	-1353.785	-21.219	306.320	12.400	0.000
75.800	24.184	39.138	1.000	13.325	-1347.242	-20.847	306.315	12.400	0.000
75.900	24.182	39.138	1.000	13.144	-1365.132	-20.560	306.295	12.400	0.000
76.000	24.182	39.137	1.000	12.984	-1374.188	-20.181	306.268	12.400	0.000
76.100	24.181	39.138	1.000	12.827	-1349.498	-19.842	306.244	12.400	0.000
76.200	24.181	39.136	1.000	12.641	-1336.847	-19.119	306.219	12.400	0.000
76.300	24.169	39.125	1.000	12.439	-1346.161	-18.754	306.180	12.400	0.000
76.400	24.157	39.114	1.000	12.289	-1332.824	-18.515	306.170	12.400	0.000
76.500	24.155	39.110	1.000	12.099	-1323.392	-17.968	306.140	12.400	0.000
76.600	24.155	39.110	1.000	11.938	-1340.149	-17.615	306.118	12.400	0.000
76.700	24.155	39.109	1.000	11.754	-1351.474	-17.400	306.112	12.400	0.000
76.800	24.154	39.109	1.000	11.600	-1341.572	-16.993	306.083	12.400	0.000
76.900	24.154	39.109	1.000	11.419	-1333.522	-16.557	306.074	12.400	0.000
77.000	24.145	39.103	1.000	11.261	-1315.225	-16.418	306.056	12.400	0.000
77.100	24.131	39.093	1.000	11.113	-1254.035	-15.867	306.037	12.400	0.000
77.200	24.125	39.091	1.000	10.963	-1184.095	-14.757	305.952	12.400	0.000
77.300	24.124	39.090	1.000	10.817	-1154.776	-13.527	305.877	12.400	0.000
77.400	24.125	39.091	1.000	10.672	-1112.765	-12.600	305.827	12.400	0.000
77.500	24.123	39.090	1.000	10.568	-1061.758	-11.778	305.773	12.400	0.000
77.600	24.124	39.090	1.000	10.426	-1013.524	-10.879	305.728	12.400	0.000
77.700	24.118	39.087	1.000	10.325	-978.746	-10.079	305.699	12.400	0.000
77.800	24.105	39.079	1.000	10.181	-935.109	-9.368	305.647	12.400	0.000
77.900	24.098	39.077	1.000	9.999	-985.327	-8.744	305.621	12.400	0.000
78.000	24.097	39.077	1.000	9.806	-1293.479	-8.296	305.603	12.400	0.000
78.100	24.098	39.075	1.000	9.611	-1533.959	-7.210	305.523	12.400	0.000
78.200	24.097	39.074	1.000	9.413	-1538.459	-6.382	305.496	12.400	0.000
78.300	24.096	39.076	1.000	9.221	-1531.236	-5.498	305.424	12.400	0.000
78.400	24.095	39.075	1.000	8.947	-1657.479	-4.402	305.374	12.400	0.000
78.500	24.080	39.071	1.000	8.574	-2165.157	-3.421	305.327	12.400	0.000
78.600	24.071	39.071	1.000	8.188	-2731.526	-2.059	305.243	12.400	0.000
78.700	24.068	39.069	1.000	7.794	-2996.681	-0.967	305.166	12.400	0.000
78.800	24.067	39.068	1.000	7.446	-3034.353	-0.301	305.143	12.400	0.000
78.900	24.067	39.069	1.000	7.063	-2948.464	-0.055	305.122	12.400	0.000
79.000	24.067	39.068	1.000	6.624	-2970.714	0.028	305.086	12.400	0.000
79.100	24.065	39.067	1.000	6.234	-3049.087	0.085	305.086	12.400	0.000
79.200	24.052	39.069	1.000	5.844	-3074.645	0.164	305.086	12.400	0.000
79.300	24.041	39.068	1.000	5.455	-3063.006	0.206	305.087	12.400	0.000
79.400	24.038	39.069	1.000	5.064	-3038.249	0.152	305.091	12.400	0.000
79.500	24.037	39.068	1.000	4.672	-3035.387	0.143	305.097	12.400	0.000
79.600	24.037	39.069	1.000	4.279	-2990.944	0.137	305.085	12.400	0.000
79.700	24.038	39.067	1.000	3.854	-3001.671	0.105	305.075	12.400	0.000
79.800	24.036	39.070	1.000	3.451	-3098.408	0.074	305.078	12.400	0.000
79.900	24.030	39.069	1.000	3.025	-3152.277	0.102	305.071	12.400	0.000
80.000	24.015	39.069	1.000	2.625	-3182.691	0.163	305.074	12.400	0.000
80.100	24.008	39.070	1.000	2.199	-3199.538	0.169	305.067	12.400	0.000
80.200	24.008	39.070	1.000	1.796	-3147.547	0.178	305.071	12.400	0.000
80.300	24.006	39.071	1.000	1.398	-3145.878	0.168	305.071	12.400	0.000
80.400	24.006	39.071	1.000	0.972	-3129.617	0.152	305.075	12.400	0.000
80.500	24.006	39.070	1.000	0.608	-3081.858	0.144	305.074	12.400	0.000
80.600	23.998	39.071	1.000	0.224	-2976.341	0.152	305.058	12.400	0.000
80.700	23.983	39.077	1.000	0.017	-271.312	0.152	305.047	12.400	0.000
80.800	23.976	39.078	1.000	0.000	-116.654	0.154	305.044	12.400	0.000
80.900	23.975	39.078	1.000	0.000	-490.194	0.173	305.048	12.400	0.000
81.000	23.974	39.080	1.000	0.080	-70.329	0.187	305.048	12.400	0.000
81.100	23.975	39.080	1.000	0.147	90.297	0.169	305.047	12.400	0.000
81.200	23.975	39.080	1.000	0.035	101.717	0.169	305.044	12.400	0.000
81.300	23.972	39.081	1.000	0.002	-1.253	0.174	305.044	12.400	0.000
81.400	23.958	39.087	1.000	0.000	-34.421	0.162	305.047	12.400	0.000
81.500	23.949	39.092	1.000	0.000	-13.925	0.153	305.040	12.400	0.000
81.600	23.945	39.093	1.000	0.045	-11.377	0.159	305.048	12.400	0.000
81.700	23.944	39.093	1.000	0.052	-11.297	0.162	305.047	12.400	0.000
81.800	23.943	39.094	1.000	0.004	-11.423	0.156	305.037	12.400	0.000
81.900	23.944	39.093	1.000	0.000	-11.435	0.156	305.048	12.400	0.000
82.000	23.942	39.093	1.000	0.000	-11.302	0.156	305.047	12.400	0.000
82.100	23.930	39.101	1.000	0.000	-11.291	0.157	305.038	12.400	0.000
82.200	23.922	39.109	1.000	0.001	-11.291	0.174	305.009	12.400	0.000
82.300	23.918	39.110	1.000	0.000	-11.291	0.154	305.020	12.400	0.000
82.400	23.915	39.113	1.000	0.000	-11.291	0.175	305.009	12.400	0.000
82.500	23.916	39.111	1.000	0.000	-11.358	0.172	305.017	12.400	0.000
82.600	23.916	39.112	1.000	0.000	-11.566	0.168	305.024	12.400	0.000
82.700	23.915	39.113	1.000	0.000	-11.307	0.150	305.028	12.400	0.000
82.800	23.907	39.117	1.000	0.000	-11.291	0.174	305.016	12.400	0.000
82.900	23.895	39.126	1.000	0.001	-11.222	0.146	305.009	12.400	0.000
83.000	23.889	39.131	1.000	0.000	-11.353	0.153	305.020	12.400	0.000
83.100	23.890	39.133	1.000	0.000	-11.363	0.165	305.020	12.400	0.000
83.200	23.889	39.135	1.000	0.000	-11.568	0.150	305.016	12.400	0.000
83.300	23.888	39.134	1.000	0.000	-11.579	0.159	305.013	12.400	0.000
83.400	23.889	39.135	1.000	0.000	-11.371	0.156	305.020	12.400	0.000
83.500	23.882	39.140	1.000	0.000	-11.363	0.163	305.016	12.400	0.000
83.600	23.868	39.152	1.000	0.000	-11.363	0.175	305.009	12.400	0.000
83.700	23.864	39.156	1.000	0.000	-11.567	0.162	305.017	12.400	0.000
83.800	23.861	39.159	1.000	0.001	-11.510	0.163	305.024	12.400	0.000
83.900	23.862	39.159	1.000	0.001	-11.368	0.178	305.013	12.400	0.000
84.000	23.863	39.159	1.000	0.000	-11.227	0.169	305.016	12.400	0.000
84.100	23.862	39.159	1.000	0.000	-11.357	0.172	305.009	12.400	0.000
84.200	23.860	39.162	1.000	0.000	-11.502	0.162	305.009	12.400	0.000
84.300	23.845	39.176	1.000	0.000	-11.230	0.153	305.008	12.400	0.000
84.400	23.837	39.184	1.000	0.000	-11.287	0.181	304.993	12.400	0.000
84.500	23.833	39.187	1.000	0.000	-11.221	0.150	304.997	12.400	0.000
84.600	23.833	39.190	1.000	0.000	-11.287	0.169	304.989	12.400	0.000
84.700	23.833	39.188	1.000	0.000	-11.359	0.175	304.989	12.400	0.000
84.800	23.834	39.190	1.000	0.000	-11.294	0.168	304.993	12.400	0.000
84.900	23.831	39.189	1.000	0.000	-11.427	0.152	304.989	12.400	0.000
85.000	23.819	39.204	1.000	0.000	-11.161	0.152	304.993	12.400	0.000
85.100	23.811	39.217	1.000	0.001	-11.421	0.152	304.993	12.400	0.000
85.200	23.809	39.221	1.000	0.000	-11.229	0.152	304.989	12.400	0.000
85.300	23.807	39.223	1.000	0.000	-11.357	0.153	304.989	12.400	0.000
85.400	23.808	39.225	1.000	0.000	-11.363	0.162	304.982	12.400	0.000
85.500	23.808	39.225	1.000	0.000	-11.294	0.165	304.974	12.400	0.000
85.600	23.806	39.225	1.000	0.000	-11.428	0.153	304.989	12.400	0.000
85.700	23.801	39.232	1.000	0.000	-11.367	0.156	304.989	12.400	0.000
85.800	23.788	39.250	1.000	0.001	-11.499	0.169	304.989	12.400	0.000
85.900	23.785	39.257	1.000	0.000	-11.571	0.149	304.997	12.400	0.000
86.000	23.782	39.259	1.000	0.000	-11.377	0.153	304.989	12.400	0.000
86.100	23.782	39.260	1.000	0.001	-11.431	0.162	304.989	12.400	0.000
86.200	23.780	39.259	1.000	0.000	-11.232	0.162	304.989	12.400	0.000
86.300	23.781	39.260	1.000	0.000	-11.355	0.152	304.982	12.400	0.000
86.400	23.778	39.265	1.000	0.000	-11.498	0.152	304.997	12.400	0.000
86.500	23.766	39.287	1.000	0.002	-11.371	0.153	304.989	12.400	0.000
86.600	23.762	39.295	1.000	0.000	-11.568	0.178	304.997	12.400	0.000
86.700	23.759	39.297	1.000	0.001	-11.237	0.172	305.005	12.400	0.000
86.800	23.759	39.297	1.000	0.000	-11.426	0.153	304.989	12.400	0.000
86.900	23.758	39.297	1.000	0.000	-11.228	0.175	304.989	12.400	0.000
87.000	23.758	39.298	1.000	0.000	-11.492	0.175	304.989	12.400	0.000
87.100	23.756	39.300	1.000	0.000	-11.439	0.153	304.966	12.400	0.000
87.200	23.745	39.318	1.000	0.000	-11.367	0.152	304.962	12.400	0.000
87.300	23.737	39.333	1.000	0.000	-11.363	0.152	304.970	12.400	0.000
87.400	23.735	39.336	1.000	0.001	-11.568	0.172	304.970	12.400	0.000
87.500	23.737	39.338	1.000	0.000	-11.446	0.163	304.970	12.400	0.000
87.600	23.735	39.338	1.000	0.002	-11.569	0.162	304.974	12.400	0.000
87.700	23.734	39.338	1.000	0.000	-11.309	0.165	304.978	12.400	0.000
87.800	23.735	39.340	1.000	0.000	-11.291	0.153	304.974	12.400	0.000
87.900	23.723	39.357	1.000	0.000	-11.425	0.162	304.970	12.400	0.000
88.000	23.715	39.374	1.000	0.001	-11.368	0.169	304.970	12.400	0.000
88.100	23.713	39.380	1.000	0.000	-11.295	0.159	304.962	12.400	0.000
88.200	23.713	39.382	1.000	0.000	-11.425	0.149	304.970	12.400	0.000
88.300	23.711	39.382	1.000	0.000	-11.298	0.152	304.962	12.400	0.000
88.400	23.711	39.382	1.000	0.000	-11.222	0.152	304.958	12.400	0.000
88.500	23.711	39.383	1.000	0.000	-11.219	0.152	304.966	12.400	0.000
88.600	23.705	39.392	1.000	0.000	-11.421	0.168	304.970	12.400	0.000
88.700	23.695	39.414	1.000	0.000	-11.435	0.153	304.955	12.400	0.000
88.800	23.691	39.421	1.000	0.000	-11.570	0.152	304.970	12.400	0.000
88.900	23.691	39.426	1.000	0.000	-11.444	0.143	304.970	12.400	0.000
89.000	23.689	39.427	1.000	0.000	-11.233	0.171	304.966	12.400	0.000
89.100	23.691	39.427	1.000	0.000	-11.355	0.169	304.970	12.400	0.000
89.200	23.691	39.427	1.000	0.000	-11.568	0.153	304.974	12.400	0.000
89.300	23.685	39.433	1.000	0.000	-11.375	0.175	304.970	12.400	0.000
89.400	23.675	39.457	1.000	0.000	-11.499	0.153	304.970	12.400	0.000
89.500	23.672	39.468	1.000	0.000	-11.302	0.171	304.970	12.400	0.000
89.600	23.671	39.471	1.000	0.000	-11.559	0.172	304.970	12.400	0.000
89.700	23.669	39.471	1.000	0.000	-11.308	0.162	304.970	12.400	0.000
89.800	23.670	39.472	1.000	0.000	-11.358	0.162	304.970	12.400	0.000
89.900	23.671	39.471	1.000	0.000	-11.296	0.175	304.970	12.400	0.000
90.000	23.668	39.474	1.000	0.000	-11.224	0.163	304.970	12.400	0.000
90.100	23.656	39.493	1.000	0.000	-11.286	0.162	304.966	12.400	0.000
90.200	23.651	39.511	1.000	0.001	-11.633	0.171	304.966	12.400	0.000
90.300	23.647	39.516	1.000	0.001	-11.315	0.156	304.970	12.400	0.000
90.400	23.648	39.518	1.000	0.000	-11.291	0.162	304.974	12.400	0.000
90.500	23.646	39.518	1.000	0.000	-11.425	0.175	304.970	12.400	0.000
90.600	23.648	39.518	1.000	0.000	-11.435	0.172	304.959	12.400	0.000
90.700	23.647	39.520	1.000	0.000	-11.435	0.169	304.970	12.400	0.000
90.800	23.638	39.538	1.000	0.000	-11.299	0.175	304.970	12.400	0.000
90.900	23.630	39.556	1.000	0.000	-11.356	0.169	304.966	12.400	0.000
91.000	23.627	39.563	1.000	0.000	-11.162	0.166	304.966	12.400	0.000
91.100	23.625	39.564	1.000	0.000	-11.214	0.168	304.970	12.400	0.000
91.200	23.625	39.565	1.000	0.000	-11.489	0.172	304.970	12.400	0.000
91.300	23.626	39.566	1.000	0.000	-11.304	0.169	304.966	12.400	0.000
91.400	23.626	39.565	1.000	0.001	-11.088	0.148	304.970	12.400	0.000
91.500	23.621	39.575	1.000	0.000	-11.275	0.152	304.966	12.400	0.000
91.600	23.610	39.598	1.000	0.000	-11.492	0.171	304.970	12.400	0.000
91.700	23.606	39.607	1.000	0.000	-11.372	0.160	304.970	12.400	0.000
91.800	23.604	39.609	1.000	0.000	-11.363	0.153	304.970	12.400	0.000
91.900	23.604	39.610	1.000	0.000	-11.363	0.125	304.966	12.400	0.000
92.000	23.603	39.611	1.000	0.000	-11.296	0.071	304.970	12.400	0.000
92.100	23.604	39.612	1.000	0.000	-11.357	0.042	304.970	12.400	0.000
92.200	23.600	39.619	1.000	0.000	-11.430	0.039	304.966	12.400	0.000
92.300	23.588	39.641	1.000	0.000	-11.235	0.046	304.970	12.400	0.000
92.400	23.585	39.653	1.000	0.000	-11.423	0.039	304.962	12.400	0.000
92.500	23.584	39.657	1.000	0.000	-11.300	0.042	304.970	12.400	0.000
92.600	23.583	39.658	1.000	0.000	-11.358	0.032	304.970	12.400	0.000
92.700	23.583	39.657	1.000	0.000	-11.363	0.017	304.963	12.400	0.000
92.800	23.582	39.660	1.000	0.000	-11.363	0.024	304.970	12.400	0.000
92.900	23.582	39.661	1.000	0.000	-11.296	0.038	304.970	12.400	0.000
93.000	23.571	39.683	1.000	0.000	-11.291	0.026	304.970	12.400	0.000
93.100	23.565	39.700	1.000	0.000	-11.291	0.023	304.967	12.400	0.000
93.200	23.562	39.706	1.000	0.000	-11.358	0.020	304.942	12.400	0.000
93.300	23.562	39.706	1.000	0.000	-11.363	0.023	304.967	12.400	0.000
93.400	23.562	39.706	1.000	0.000	-11.363	0.023	304.969	12.400	0.000
93.500	23.562	39.706	1.000	0.000	-11.430	0.023	304.964	12.400	0.000
93.600	23.561	39.710	1.000	0.000	-11.769	0.021	304.970	12.400	0.000
93.700	23.553	39.728	1.000	0.000	-11.197	0.023	304.970	12.400	0.000
93.800	23.544	39.745	1.000	0.000	-11.279	0.023	304.972	12.400	0.000
93.900	23.542	39.751	1.000	0.000	-11.424	0.023	304.973	12.400	0.000
94.000	23.539	39.754	1.000	0.000	-11.435	0.024	304.955	12.400	0.000
94.100	23.540	39.753	1.000	0.000	-11.298	0.026	304.944	12.400	0.000
94.200	23.540	39.753	1.000	0.000	-11.358	0.025	304.939	12.400	0.000
94.300	23.541	39.756	1.000	0.000	-11.562	0.032	304.956	12.400	0.000
94.400	23.536	39.763	1.000	0.000	-11.379	0.038	304.970	12.400	0.000
94.500	23.527	39.790	1.000	0.000	-11.296	0.034	304.970	12.400	0.000
94.600	23.522	39.798	1.000	0.000	-11.494	0.035	304.969	12.400	0.000
94.700	23.522	39.800	1.000	0.000	-11.305	0.030	304.965	12.400	0.000
94.800	23.522	39.803	1.000	0.000	-11.492	0.023	304.964	12.400	0.000
94.900	23.522	39.802	1.000	0.000	-11.440	0.021	304.970	12.400	0.000
95.000	23.522	39.803	1.000	0.000	-11.368	0.017	304.965	12.400	0.000
95.100	23.519	39.810	1.000	0.001	-11.564	0.021	304.946	12.400	0.000
95.200	23.507	39.833	1.000	0.000	-11.579	0.023	304.932	12.400	0.000
95.300	23.504	39.844	1.000	0.000	-11.240	0.023	304.936	12.400	0.000
95.400	23.503	39.848	1.000	0.000	-11.287	0.023	304.937	12.400	0.000
95.500	23.501	39.848	1.000	0.001	-11.291	0.022	304.933	12.400	0.000
95.600	23.502	39.848	1.000	0.000	-11.156	0.022	304.940	12.400	0.000
95.700	23.503	39.849	1.000	0.000	-11.215	0.026	304.942	12.400	0.000
95.800	23.501	39.850	1.000	0.001	-11.622	0.023	304.938	12.400	0.000
95.900	23.491	39.873	1.000	0.000	-11.317	0.022	304.938	12.400	0.000
96.000	23.484	39.887	1.000	0.000	-11.223	0.020	304.945	12.400	0.000
96.100	23.481	39.893	1.000	0.000	-11.219	0.021	304.938	12.400	0.000
96.200	23.481	39.896	1.000	0.000	-11.419	0.024	304.936	12.400	0.000
96.300	23.481	39.895	1.000	0.000	-11.368	0.026	304.939	12.400	0.000
96.400	23.481	39.896	1.000	0.000	-11.564	0.022	304.939	12.400	0.000
96.500	23.481	39.897	1.000	0.000	-11.309	0.020	304.938	12.400	0.000
96.600	23.472	39.916	1.000	0.000	-11.291	0.021	304.937	12.400	0.000
96.700	23.465	39.932	1.000	0.000	-11.291	0.023	304.941	12.400	0.000
96.800	23.464	39.939	1.000	0.000	-11.223	0.023	304.935	12.400	0.000
96.900	23.461	39.941	1.000	0.000	-11.692	0.023	304.936	12.400	0.000
97.000	23.462	39.942	1.000	0.001	-11.318	0.028	304.939	12.400	0.000
97.100	23.462	39.944	1.000	0.000	-11.494	0.037	304.940	12.400	0.000
97.200	23.462	39.943	1.000	0.001	-11.372	0.018	304.944	12.400	0.000
97.300	23.456	39.951	1.000	0.000	-11.229	0.022	304.945	12.400	0.000
97.400	23.447	39.975	1.000	0.000	-11.151	0.019	304.937	12.400	0.000
97.500	23.443	39.983	1.000	0.000	-11.214	0.018	304.934	12.400	0.000
97.600	23.443	39.985	1.000	0.000	-11.486	0.023	304.941	12.400	0.000
97.700	23.442	39.986	1.000	0.000	-11.234	0.023	304.938	12.400	0.000
97.800	23.442	39.987	1.000	0.001	-11.150	0.023	304.943	12.400	0.000
97.900	23.442	39.988	1.000	0.001	-11.417	0.024	304.932	12.400	0.000
98.000	23.440	39.995	1.000	0.000	-11.367	0.026	304.937	12.400	0.000
98.100	23.429	40.018	1.000	0.000	-11.499	0.025	304.943	12.400	0.000
98.200	23.425	40.029	1.000	0.000	-11.306	0.027	304.943	12.400	0.000
98.300	23.423	40.031	1.000	0.000	-11.357	0.021	304.942	12.400	0.000
98.400	23.422	40.033	1.000	0.000	-11.161	0.021	304.940	12.400	0.000
98.500	23.422	40.033	1.000	0.001	-11.349	0.016	304.941	12.400	0.000
98.600	23.422	40.033	1.000	0.000	-11.430	0.022	304.934	12.400	0.000
98.700	23.422	40.034	1.000	0.000	-11.300	0.021	304.931	12.400	0.000
98.800	23.412	40.053	1.000	0.000	-11.357	0.023	304.935	12.400	0.000
98.900	23.405	40.069	1.000	0.000	-11.363	0.024	304.946	12.400	0.000
99.000	23.405	40.075	1.000	0.000	-11.430	0.026	304.944	12.400	0.000
99.100	23.403	40.076	1.000	0.000	-11.435	0.026	304.949	12.400	0.000
99.200	23.403	40.077	1.000	0.000	-11.233	0.026	304.942	12.400	0.000
99.300	23.405	40.077	1.000	0.000	-11.488	0.023	304.941	12.400	0.000
99.400	23.402	40.079	1.000	0.000	-11.303	0.022	304.946	12.400	0.000
99.500	23.393	40.096	1.000	0.001	-11.493	0.021	304.933	12.400	0.000
99.600	23.387	40.111	1.000	0.000	-11.241	0.023	304.937	12.400	0.000
99.700	23.384	40.119	1.000	0.000	-11.418	0.023	304.934	12.400	0.000
99.800	23.383	40.119	1.000	0.000	-11.301	0.023	304.943	12.400	0.000
99.900	23.383	40.119	1.000	0.000	-11.492	0.024	304.943	12.400	0.000
100.000	23.383	40.121	1.000	0.000	-11.305	0.028	304.943	12.400	0.000
100.100	23.385	40.120	1.000	0.000	-11.358	0.021	304.944	12.400	0.000
100.200	23.380	40.129	1.000	0.000	-11.363	0.023	304.945	12.400	0.000
100.300	23.372	40.152	1.000	0.000	-11.296	0.024	304.938	12.400	0.000
100.400	23.371	40.153	1.000	0.000	-11.291	0.026	304.935	12.400	0.000
100.500	23.371	40.153	1.000	0.000	-11.291	0.026	304.935	12.400	0.000
100.600	23.371	40.153	1.000	0.000	-11.291	0.026	304.935	12.400	0.000
100.700	23.371	40.153	1.000	0.000	-11.291	0.026	304.935	12.400	0.000
100.800	23.371	40.153	1.000	0.000	-11.291	0.026	304.935	12.400	0.000
100.900	23.371	40.153	1.000	0.000	-11.291	0.026	304.935	12.400	0.000
101.000	23.371	40.153	1.000	0.000	-11.291	0.026	304.935	12.400	0.000
101.100	23.371	40.153	1.000	0.000	-11.291	0.026	304.935	12.400	0.000
101.200	23.371	40.153	1.000	0.000	-11.291	0.026	304.935	12.400	0.000
101.300	23.371	40.153	1.000	0.000	-11.291	0.026	304.935	12.400	0.000
101.400	23.371	40.153	1.000	0.000	-11.291	0.026	304.935	12.400	0.000
101.500	23.371	40.153	1.000	0.000	-11.291	0.026	304.935	12.400	0.000
101.600	23.371	40.153	1.000	0.000	-11.291	0.026	304.935	12.400	0.000
101.700	23.371	40.153	1.000	0.000	-11.291	0.026	304.935	12.400	0.000
101.800	23.371	40.153	1.000	0.000	-11.291	0.026	304.935	12.400	0.000
101.900	23.371	40.153	1.000	0.000	-11.291	0.026	304.935	12.400	0.000
102.000	23.371	40.153	1.000	0.000	-11.291	0.026	304.935	12.400	0.000
102.100	23.371	40.153	1.000	0.000	-11.291	0.026	304.935	12.400	0.000
102.200	23.371	40.153	1.000	0.000	-11.291	0.026	304.935	12.400	0.000
102.300	23.371	40.153	1.000	0.000	-11.291	0.026	304.935	12.400	0.000
102.400	23.371	40.153	1.000	0.000	-11.291	0.026	304.935	12.400	0.000
102.500	23.371	40.153	1.000	0.000	-11.291	0.026	304.935	12.400	0.000
102.600	23.371	40.153	1.000	0.000	-11.291	0.026	304.935	12.400	0.000
102.700	23.371	40.153	1.000	0.000	-11.291	0.026	304.935	12.400	0.000
102.800	23.371	40.153	1.000	0.000	-11.291	0.026	304.935	12.400	0.000
102.900	23.371	40.153	1.000	0.000	-11.291	0.026	304.935	12.400	0.000
103.000	23.371	40.153	1.000	0.000	-11.291	0.026	304.935	12.400	0.000
103.100	23.371	40.153	1.000	0.000	-11.291	0.026	304.935	12.400	0.000
103.200	23.371	40.153	1.000	0.000	-11.291	0.026	304.935	12.400	0.000
103.300	23.371	40.153	1.000	0.000	-11.291	0.026	304.935	12.400	0.000
103.400	23.371	40.153	1.000	0.000	-11.291	0.026	304.935	12.400	0.000
103.500	23.371	40.153	1.000	0.000	-11.291	0.026	304.935	12.400	0.000
103.600	23.371	40.153	1.000	0.000	-11.291	0.026	304.935	12.400	0.000
103.700	23.371	40.153	1.000	0.000	-11.291	0.026	304.935	12.400	0.000
103.800	23.371	40.153	1.000	0.000	-11.291	0.026	304.935	12.400	0.000
103.900	23.371	40.153	1.000	0.000	-11.291	0.026	304.935	12.400	0.000
104.000	23.371	40.153	1.000	0.000	-11.291	0.026	304.935	12.400	0.000
104.100	23.371	40.153	1.000	0.000	-11.291	0.026	304.935	12.400	0.000
104.200	23.371	40.153	1.000	0.000	-11.291	0.026	304.935	12.400	0.000
104.300	23.371	40.153	1.000	0.000	-11.291	0.026	304.935	12.400	0.000
104.400	23.371	40.153	1.000	0.000	-11.291	0.026	304.935	12.400	0.000
104.500	23.371	40.153	1.000	0.000	-11.291	0.026	304.935	12.400	0.000
104.600	23.371	40.153	1.000	0.000	-11.291	0.026	304.935	12.400	0.000
104.700	23.371	40.153	1.000	0.000	-11.291	0.026	304.935	12.400	0.000
104.800	23.371	40.153	1.000	0.000	-11.291	0.026	304.935	12.400	0.000
104.900	23.371	40.153	1.000	0.000	-11.291	0.026	304.935	12.400	0.000
105.000	23.371	40.153	1.000	0.000	-11.291	0.026	304.935	12.400	0.000
105.100	23.371	40.153	1.000	0.000	-11.291	0.026	304.935	12.400	0.000
105.200	23.371	40.153	1.000	0.000	-11.291	0.026	304.935	12.400	0.000
105.300	23.371	40.153	1.000	0.000	-11.291	0.026	304.935	12.400	0.000
105.400	23.371	40.153	1.000	0.000	-11.291	0.026	304.935	12.400	0.000
105.500	23.371	40.153	1.000	0.000	-11.291	0.026	304.935	12.400	0.000
105.600	23.371	40.153	1.000	0.000	-11.291	0.026	304.935	12.400	0.000
105.700	23.371	40.153	1.000	0.000	-11.291	0.026	304.935	12.400	0.000
105.800	23.371	40.153	1.000	0.000	-11.291	0.026	304.935	12.400	0.000
105.900	23.371	40.153	1.000	0.000	-11.291	0.026	304.935	12.400	0.000
106.000	23.371	40.153	1.000	0.000	-11.291	0.026	304.935	12.400	0.000
106.100	23.371	40.153	1.000	0.000	-11.291	0.026	304.935	12.400	0.000
106.200	23.371	40.153	1.000	0.000	-11.291	0.026	304.935	12.400	0.000
106.300	23.371	40.153	1.000	0.000	-11.291	0.026	304.935	12.400	0.000
106.400	23.371	40.153	1.000	0.000	-11.291	0.026	304.935	12.400	0.000
106.500	23.371	40.153	1.000	0.000	-11.291	0.026	304.935	12.400	0.000
106.600	23.371	40.153	1.000	0.000	-11.291	0.026	304.935	12.400	0.000
106.700	23.371	40.153	1.000	0.000	-11.291	0.026	304.935	12.400	0.000
106.800	23.371	40.153	1.000	0.000	-11.291	0.026	304.935	12.400	0.000
106.900	23.371	40.153	1.000	0.000	-11.291	0.026	304.935	12.400	0.000
107.000	23.371	40.153	1.000	0.000	-11.291	0.026	304.935	12.400	0.000
107.100	23.371	40.153	1.000	0.000	-11.291	0.026	304.935	12.400	0.000
107.200	23.371	40.153	1.000	0.000	-11.291	0.026	304.935	12.400	0.000
107.300	23.371	40.153	1.000	0.000	-11.291	0.026	304.935	12.400	0.000
107.400	23.371	40.153	1.000	0.000	-11.291	0.026	304.935	12.400	0.000
107.500	23.371	40.153	1.000	0.000	-11.291	0.026	304.935	12.400	0.000
107.600	23.371	40.153	1.000	0.000	-11.291	0.026	304.935	12.400	0.000
107.700	23.371	40.153	1.000	0.000	-11.291	0.026	304.935	12.400	0.000
107.800	23.371	40.153	1.000	0.000	-11.291	0.026	304.935	12.400	0.000
107.900	23.371	40.153	1.000	0.000	-11.291	0.026	304.935	12.400	0.000
108.000	23.371	40.153	1.000	0.000	-11.291	0.026	304.935	12.400	0.000
108.100	23.371	40.153	1.000	0.000	-11.291	0.026	304.935	12.400	0.000
108.200	23.371	40.153	1.000	0.000	-11.291	0.026	304.935	12.400	0.000
108.300	23.371	40.153	1.000	0.000	-11.291	0.026	304.935	12.400	0.000
108.400	23.371	40.153	1.000	0.000	-11.291	0.026	304.935	12.400	0.000
108.500	23.371	40.153	1.000	0.000	-11.291	0.026	304.935	12.400	0.000
108.600	23.371	40.153	1.000	0.000	-11.291	0.026	304.935	12.400	0.000
108.700	23.371	40.153	1.000	0.000	-11.291	0.026	304.935	12.400	0.000
108.800	23.371	40.153	1.000	0.000	-11.291	0.026	304.935	12.400	0.000
108.900	23.371	40.153	1.000	0.000	-11.291	0.026	304.935	12.400	0.000
109.000	23.371	40.153	1.000	0.000	-11.291	0.026	304.935	12.400	0.000
109.100	23.371	40.153	1.000	0.000	-11.291	0.026	304.935	12.400	0.000
109.200	23.371	40.153	1.000	0.000	-11.291	0.026	304.935	12.400	0.000
109.300	23.371	40.153	1.000	0.000	-11.291	0.026	304.935	12.400	0.000
109.400	23.371	40.153	1.000	0.000	-11.291	0.026	304.935	12.400	0.000
109.500	23.371	40.153	1.000	0.000	-11.291	0.026	304.935	12.400	0.000
109.600	23.371	40.153	1.000	0.000	-11.291	0.026	304.935	12.400	0.000
109.700	23.371	40.153	1.000	0.000	-11.291	0.026	304.935	12.400	0.000
109.800	23.371	40.153	1.000	0.000	-11.291	0.026	304.935	12.400	0.000
109.900	23.371	40.153	1.000	0.000	-11.291	0.026	304.935	12.400	0.000
110.000	23.371	40.153	1.000	0.000	-11.291	0.026	304.935	12.400	0.000
110.100	23.371	40.153	1.000	0.000	-11.291	0.026	304.935	12.400	0.000
110.200	23.371	40.153	1.000	0.000	-11.291	0.026	304.935	12.400	0.000
110.300	23.371	40.153	1.000	0.000	-11.291	0.026	304.935	12.400	0.000
