Time[sec]	Test_Cell_Temp[C]	Test_Cell_RH[%]	Phase_#	Dyno_Speed[mph]	Dyno_Tractive_Effort[N]	HV_Battery_Current[A]	HV_Battery_Voltage[V]	HV_Battery_SOC[%]	Accelerator_Pedal_Position[%]
-10.000	-6.542	9.502	0.000	0.001	-8.270	-0.174	0.663	101.600	0.000
-9.900	-6.542	9.501	0.000	0.000	-8.263	-0.174	0.720	101.600	0.000
-9.800	-6.543	9.502	0.000	0.001	-8.526	-0.174	0.778	101.600	0.000
-9.700	-6.542	9.500	0.000	0.001	-8.229	-0.177	0.787	101.600	0.000
-9.600	-6.542	9.500	0.000	0.001	-8.256	-0.177	0.836	101.600	0.000
-9.500	-6.542	9.500	0.000	0.000	-8.395	-0.183	0.869	101.600	0.000
-9.400	-6.542	9.501	0.000	0.000	-8.082	-0.178	0.921	101.600	0.000
-9.300	-6.542	9.502	0.000	0.000	-8.305	-0.166	0.947	101.600	0.000
-9.200	-6.542	9.501	0.000	0.000	-8.014	-0.156	0.964	101.600	0.000
-9.100	-6.544	9.503	0.000	0.000	-8.040	-0.152	1.018	101.600	0.000
-9.000	-6.545	9.501	0.000	0.000	-8.113	-0.174	1.064	15.567	0.000
-8.900	-6.545	9.500	0.000	0.001	-8.185	-0.163	1.115	14.800	0.000
-8.800	-6.545	9.502	0.000	0.000	-8.062	-0.161	1.144	14.800	0.000
-8.700	-6.545	9.503	0.000	0.000	-8.047	-0.158	1.159	14.800	0.000
-8.600	-6.546	9.501	0.000	0.000	-8.112	-0.158	1.188	14.800	0.000
-8.500	-6.544	9.502	0.000	0.000	-8.250	-0.155	1.239	14.800	0.000
-8.400	-6.545	9.501	0.000	0.000	-8.066	-0.169	1.263	14.800	0.000
-8.300	-6.546	9.500	0.000	0.000	-8.176	-0.159	1.289	14.800	0.000
-8.200	-6.544	9.499	0.000	0.001	-8.130	-0.164	1.309	14.800	0.000
-8.100	-6.544	9.497	0.000	0.000	-8.119	-0.153	1.332	14.800	0.000
-8.000	-6.545	9.498	0.000	0.000	-8.316	-0.157	1.365	14.800	0.000
-7.900	-6.544	9.499	0.000	0.001	-8.335	-0.155	1.397	14.800	0.000
-7.800	-6.545	9.499	0.000	0.001	-8.271	-0.158	1.442	14.800	0.000
-7.700	-6.545	9.497	0.000	0.000	-8.327	-0.155	1.461	14.800	0.000
-7.600	-6.544	9.499	0.000	0.000	-8.335	-0.172	1.476	14.800	0.000
-7.500	-6.544	9.500	0.000	0.000	-8.139	-0.163	1.508	14.800	0.000
-7.400	-6.545	9.499	0.000	0.000	-8.249	-0.161	1.523	14.800	0.000
-7.300	-6.544	9.498	0.000	0.000	-8.136	-0.158	1.559	14.800	0.000
-7.200	-6.545	9.498	0.000	0.000	-8.183	-0.155	1.584	14.800	0.000
-7.100	-6.545	9.498	0.000	0.000	-8.191	-0.177	1.611	14.800	0.000
-7.000	-6.544	9.499	0.000	0.001	-8.255	-0.172	1.634	14.800	0.000
-6.900	-6.544	9.500	0.000	0.001	-8.394	-0.174	1.657	14.800	0.000
-6.800	-6.545	9.498	0.000	0.000	-8.147	-0.174	1.687	14.800	0.000
-6.700	-6.546	9.498	0.000	0.000	-8.184	-0.180	1.688	14.800	0.000
-6.600	-6.544	9.498	0.000	0.000	-8.384	-0.172	1.694	14.800	0.000
-6.500	-6.545	9.497	0.000	0.001	-8.277	-0.179	1.716	14.800	0.000
-6.400	-6.544	9.498	0.000	0.000	-8.069	-0.175	1.753	14.800	0.000
-6.300	-6.545	9.499	0.000	0.001	-8.308	-0.174	1.771	14.800	0.000
-6.200	-6.545	9.499	0.000	0.000	-8.335	-0.177	1.800	14.800	0.000
-6.100	-6.547	9.498	0.000	0.000	-8.399	-0.177	1.828	14.800	0.000
-6.000	-6.548	9.500	0.000	0.000	-8.343	-0.175	1.835	14.800	0.000
-5.900	-6.547	9.500	0.000	0.000	-8.205	-0.177	1.848	14.800	0.000
-5.800	-6.546	9.499	0.000	0.000	-8.061	-0.180	1.874	14.800	0.000
-5.700	-6.548	9.498	0.000	0.000	-8.175	-0.172	1.901	14.800	0.000
-5.600	-6.548	9.497	0.000	0.000	-7.998	-0.176	1.912	14.800	0.000
-5.500	-6.547	9.498	0.000	0.000	-8.236	-0.177	1.923	14.800	0.000
-5.400	-6.547	9.498	0.000	0.000	-8.263	-0.186	1.944	14.800	0.000
-5.300	-6.548	9.497	0.000	0.000	-8.199	-0.176	1.964	14.800	0.000
-5.200	-6.548	9.497	0.000	0.001	-8.447	-0.180	1.970	14.800	0.000
-5.100	-6.546	9.495	0.000	0.001	-8.157	-0.178	1.991	14.800	0.000
-5.000	-6.547	9.496	0.000	0.001	-8.054	-0.175	2.017	14.800	0.000
-4.900	-6.546	9.497	0.000	0.000	-8.175	-0.177	2.028	14.800	0.000
-4.800	-6.547	9.496	0.000	0.000	-8.126	-0.180	2.046	14.800	0.000
-4.700	-6.549	9.496	0.000	0.000	-8.119	-0.181	2.062	14.800	0.000
-4.600	-6.547	9.493	0.000	0.001	-7.928	-0.181	2.087	14.800	0.000
-4.500	-6.549	9.495	0.000	0.000	-8.289	-0.181	2.088	14.800	0.000
-4.400	-6.548	9.496	0.000	0.000	-8.077	-0.175	2.104	14.800	0.000
-4.300	-6.548	9.497	0.000	0.000	-8.111	-0.182	2.117	14.800	0.000
-4.200	-6.548	9.496	0.000	0.000	-8.055	-0.176	2.132	14.800	0.000
-4.100	-6.548	9.498	0.000	0.000	-7.983	-0.180	2.141	14.800	0.000
-4.000	-6.549	9.496	0.000	0.000	-7.975	-0.183	2.152	14.800	0.000
-3.900	-6.549	9.495	0.000	0.001	-7.846	-0.184	2.163	14.800	0.000
-3.800	-6.549	9.497	0.000	0.000	-8.083	-0.178	2.188	14.800	0.000
-3.700	-6.549	9.494	0.000	0.001	-8.119	-0.188	2.199	14.800	0.000
-3.600	-6.549	9.496	0.000	0.001	-7.992	-0.174	2.216	14.800	0.000
-3.500	-6.549	9.495	0.000	0.000	-7.846	-0.171	2.232	14.800	0.000
-3.400	-6.549	9.497	0.000	0.000	-7.959	-0.182	2.232	14.800	0.000
-3.300	-6.549	9.497	0.000	0.000	-8.039	-0.178	2.244	14.800	0.000
-3.200	-6.548	9.496	0.000	0.000	-7.926	-0.177	2.260	14.800	0.000
-3.100	-6.549	9.495	0.000	0.000	-8.092	-0.175	2.262	14.800	0.000
-3.000	-6.549	9.496	0.000	0.000	-8.183	-0.174	2.281	14.800	0.000
-2.900	-6.549	9.496	0.000	0.000	-8.191	-0.180	2.292	14.800	0.000
-2.800	-6.550	9.496	0.000	0.000	-8.255	-0.175	2.300	14.800	0.000
-2.700	-6.549	9.496	0.000	0.000	-8.069	-0.180	2.307	14.800	0.000
-2.600	-6.549	9.496	0.000	0.000	-7.982	-0.178	2.328	14.800	0.000
-2.500	-6.548	9.498	0.000	0.001	-8.232	-0.177	2.342	14.800	0.000
-2.400	-6.549	9.497	0.000	0.000	-7.818	-0.172	2.344	14.800	0.000
-2.300	-6.548	9.497	0.000	0.000	-7.951	0.968	169.913	14.800	0.000
-2.200	-6.549	9.496	0.000	0.000	-8.102	0.126	286.777	14.800	0.000
-2.100	-6.550	9.496	0.000	0.000	-8.119	-0.080	305.550	14.800	0.000
-2.000	-6.551	9.496	0.000	0.000	-8.119	-0.079	305.869	14.800	0.000
-1.900	-6.549	9.497	0.000	0.001	-8.119	0.298	305.843	14.800	0.000
-1.800	-6.549	9.497	0.000	0.000	-7.927	1.195	305.797	14.800	0.000
-1.700	-6.549	9.494	0.000	0.000	-8.029	1.433	305.773	14.800	0.000
-1.600	-6.550	9.494	0.000	0.000	-8.047	1.525	305.773	14.800	0.000
-1.500	-6.550	9.497	0.000	0.000	-7.983	1.532	305.773	14.800	0.000
-1.400	-6.549	9.495	0.000	0.000	-8.167	1.583	305.773	14.800	0.000
-1.300	-6.550	9.496	0.000	0.000	-7.874	1.608	305.773	14.800	0.000
-1.200	-6.549	9.496	0.000	0.001	-8.019	1.656	305.751	14.800	0.000
-1.100	-6.549	9.495	0.000	0.001	-8.240	1.843	305.746	14.800	0.000
-1.000	-6.549	9.496	0.000	0.000	-7.949	1.581	305.762	14.800	0.000
-0.900	-6.549	9.496	0.000	0.000	-7.714	1.559	305.769	14.800	0.000
-0.800	-6.549	9.496	0.000	0.000	-8.202	1.543	305.766	14.800	0.000
-0.700	-6.549	9.495	0.000	0.000	-7.820	1.534	305.766	14.800	0.000
-0.600	-6.549	9.497	0.000	0.000	-8.011	1.533	305.772	14.800	0.000
-0.500	-6.549	9.497	0.000	0.001	-8.174	1.533	305.767	14.800	0.000
-0.400	-6.549	9.498	0.000	0.000	-7.936	1.541	305.766	14.800	0.000
-0.300	-6.549	9.497	0.000	0.000	-8.030	1.538	305.772	14.800	0.000
-0.200	-6.550	9.496	0.000	0.000	-8.298	1.539	305.770	14.800	0.000
-0.100	-6.549	9.495	0.000	0.000	-8.017	1.529	305.773	14.800	0.000
-0.000	-6.549	9.496	0.000	0.000	-7.719	1.493	305.777	14.800	0.000
0.100	-6.549	9.496	0.000	0.001	-7.939	1.448	305.768	14.800	0.000
0.200	-6.549	9.494	0.000	0.001	-8.164	1.427	305.769	14.800	0.000
0.300	-6.549	9.496	0.000	0.000	-8.318	1.408	305.782	14.800	0.000
0.400	-6.550	9.496	0.000	0.001	-8.208	1.373	305.776	14.800	0.000
0.500	-6.549	9.496	0.000	0.001	-8.128	1.347	305.770	14.800	0.000
0.600	-6.549	9.496	0.000	0.000	-8.246	1.337	305.782	14.800	0.000
0.700	-6.549	9.496	0.000	0.001	-8.011	1.321	305.770	14.800	0.000
0.800	-6.549	9.494	0.000	0.001	-8.166	1.317	305.781	14.800	0.000
0.900	-6.549	9.495	0.000	0.000	-8.128	1.317	305.770	14.800	0.000
1.000	-6.549	9.497	0.883	0.000	-8.183	1.208	305.781	14.800	0.000
1.100	-6.551	9.497	1.000	0.000	-8.255	1.242	305.782	14.800	0.000
1.200	-6.549	9.495	1.000	0.000	-8.263	1.271	305.772	14.800	0.000
1.300	-6.552	9.496	1.000	0.000	-8.263	1.290	305.766	14.800	0.000
1.400	-6.550	9.496	1.000	0.000	-8.136	1.187	305.772	14.800	0.000
1.500	-6.551	9.495	1.000	0.000	-8.183	1.235	305.773	14.800	0.000
1.600	-6.551	9.496	1.000	0.000	-8.380	1.153	305.773	14.800	0.000
1.700	-6.553	9.496	1.000	0.000	-8.030	1.202	305.767	14.800	0.000
1.800	-6.551	9.497	1.000	0.000	-8.264	1.215	305.766	14.800	0.000
1.900	-6.552	9.497	1.000	0.000	-8.082	1.190	305.778	14.800	0.000
2.000	-6.552	9.495	1.000	0.001	-7.983	1.196	305.775	14.800	0.000
2.100	-6.550	9.496	1.000	0.001	-7.975	1.163	305.791	14.800	0.000
2.200	-6.552	9.496	1.000	0.000	-8.165	1.197	305.782	14.800	0.000
2.300	-6.552	9.496	1.000	0.000	-8.255	1.180	305.771	14.800	0.000
2.400	-6.552	9.494	1.000	0.000	-8.263	1.174	305.775	14.800	0.000
2.500	-6.549	9.496	1.000	0.000	-8.006	1.177	305.765	14.800	0.000
2.600	-6.551	9.496	1.000	0.000	-7.975	1.109	305.768	14.800	0.000
2.700	-6.551	9.494	1.000	0.000	-7.975	1.161	305.773	14.800	0.000
2.800	-6.551	9.493	1.000	0.000	-9.012	1.138	305.770	14.800	0.000
2.900	-6.552	9.494	1.000	0.000	-8.356	1.188	305.775	14.800	0.000
3.000	-6.551	9.494	1.000	0.000	-8.199	1.084	305.783	14.800	0.000
3.100	-6.552	9.493	1.000	0.002	-8.385	1.150	305.776	14.800	0.000
3.200	-6.552	9.493	1.000	0.000	-8.279	1.161	305.773	14.800	0.000
3.300	-6.554	9.494	1.000	0.000	-8.199	1.177	305.770	14.800	0.000
3.400	-6.553	9.493	1.000	0.000	-8.128	1.076	305.787	14.800	0.000
3.500	-6.554	9.493	1.000	0.000	-8.311	1.143	305.784	14.800	0.000
3.600	-6.556	9.494	1.000	0.000	-8.656	1.248	305.772	14.800	0.000
3.700	-6.553	9.494	1.000	0.002	-8.372	1.291	305.775	14.800	0.000
3.800	-6.553	9.494	1.000	0.001	-8.271	1.223	305.768	14.800	0.000
3.900	-6.554	9.495	1.000	0.001	-7.617	1.190	305.775	14.800	0.000
4.000	-6.555	9.494	1.000	0.000	-7.991	1.168	305.771	14.800	0.000
4.100	-6.555	9.494	1.000	0.000	-8.110	1.039	305.784	14.800	0.000
4.200	-6.555	9.492	1.000	0.010	-8.441	1.069	305.771	14.800	0.000
4.300	-6.555	9.494	1.000	0.047	-8.031	1.142	305.772	14.800	0.000
4.400	-6.552	9.494	1.000	0.105	-4.165	1.188	305.770	14.800	0.000
4.500	-6.555	9.495	1.000	0.190	108.710	1.284	305.773	14.800	0.000
4.600	-6.554	9.494	1.000	0.253	362.337	1.578	305.750	14.800	7.537
4.700	-6.554	9.494	1.000	0.388	544.429	1.957	305.716	14.800	9.581
4.800	-6.553	9.493	1.000	0.503	839.358	2.296	305.666	14.800	9.996
4.900	-6.555	9.494	1.000	0.697	1214.156	3.271	305.606	14.800	11.186
5.000	-6.555	9.494	1.000	0.939	1510.183	4.161	305.553	14.800	11.595
5.100	-6.557	9.495	1.000	1.227	1788.089	5.529	305.460	14.800	11.600
5.200	-6.557	9.493	1.000	1.476	2015.114	7.085	305.342	14.800	11.205
5.300	-6.555	9.493	1.000	1.724	2013.738	7.998	305.258	14.800	11.200
5.400	-6.555	9.493	1.000	1.959	1986.668	8.848	305.203	14.800	10.803
5.500	-6.555	9.493	1.000	2.205	1962.861	9.516	305.148	14.800	10.007
5.600	-6.555	9.494	1.000	2.406	1810.922	9.775	305.127	14.800	9.207
5.700	-6.555	9.494	1.000	2.554	1664.790	9.732	305.125	14.800	8.012
5.800	-6.556	9.493	1.000	2.702	1467.326	9.016	305.165	14.800	8.000
5.900	-6.555	9.494	1.000	2.841	1296.884	8.546	305.194	14.800	8.000
6.000	-6.556	9.494	1.000	2.994	1211.724	8.433	305.202	14.800	9.196
6.100	-6.555	9.494	1.000	3.139	1187.674	8.322	305.203	14.800	10.700
6.200	-6.555	9.494	1.000	3.280	1212.427	8.544	305.186	14.800	11.992
6.300	-6.556	9.494	1.000	3.390	1151.639	8.814	305.182	14.800	12.795
6.400	-6.555	9.494	1.000	3.525	1049.212	8.605	305.192	14.800	13.188
6.500	-6.555	9.493	1.000	3.625	968.553	8.231	305.229	14.800	13.200
6.600	-6.555	9.493	1.000	3.732	961.553	8.023	305.233	14.800	13.200
6.700	-6.557	9.493	1.000	3.867	961.357	8.128	305.221	14.800	14.386
6.800	-6.556	9.495	1.000	3.964	936.307	8.292	305.207	14.800	16.770
6.900	-6.555	9.492	1.000	4.110	961.676	8.575	305.180	14.800	18.394
7.000	-6.557	9.492	1.000	4.211	970.688	8.916	305.163	14.800	19.196
7.100	-6.558	9.490	1.000	4.354	984.999	9.271	305.124	14.800	19.200
7.200	-6.556	9.491	1.000	4.454	992.219	9.590	305.093	14.800	19.200
7.300	-6.558	9.492	1.000	4.563	982.312	9.771	305.081	14.800	19.993
7.400	-6.557	9.491	1.000	4.705	985.501	9.947	305.073	14.800	23.964
7.500	-6.557	9.492	1.000	4.856	1073.547	10.527	305.026	14.800	25.932
7.600	-6.559	9.492	1.000	5.001	1182.508	11.500	304.958	14.800	27.974
7.700	-6.557	9.493	1.000	5.186	1204.231	12.394	304.880	14.800	30.765
7.800	-6.556	9.491	1.000	5.345	1248.136	13.358	304.801	14.800	32.386
7.900	-6.556	9.492	1.000	5.524	1317.716	14.281	304.721	14.800	35.162
8.000	-6.558	9.491	1.000	5.683	1352.672	15.164	304.659	14.800	37.984
8.100	-6.558	9.492	1.000	5.872	1418.565	15.456	304.630	14.800	38.000
8.200	-6.557	9.491	1.000	6.068	1451.159	16.407	304.555	14.800	38.000
8.300	-6.558	9.490	1.000	6.215	1451.710	17.160	304.502	14.800	38.000
8.400	-6.558	9.490	1.000	6.409	1455.080	17.596	304.456	14.800	38.396
8.500	-6.556	9.490	1.000	6.606	1453.686	18.084	304.417	14.800	39.983
8.600	-6.558	9.490	1.000	6.800	1479.127	18.702	304.366	14.800	42.765
8.700	-6.558	9.490	1.000	6.995	1536.557	19.626	304.263	14.800	44.793
8.800	-6.558	9.490	1.000	7.236	1647.894	21.199	304.140	14.800	45.993
8.900	-6.557	9.490	1.000	7.436	1715.367	23.033	304.002	14.800	46.000
9.000	-6.557	9.490	1.000	7.676	1740.419	24.382	303.905	14.800	46.000
9.100	-6.557	9.491	1.000	7.878	1729.494	25.256	303.846	14.800	46.393
9.200	-6.559	9.490	1.000	8.081	1704.639	25.970	303.789	14.800	46.400
9.300	-6.560	9.489	1.000	8.312	1718.540	26.709	303.718	14.800	46.001
9.400	-6.560	9.489	1.000	8.510	1721.059	27.552	303.634	14.800	46.000
9.500	-6.561	9.490	1.000	8.748	1735.685	27.901	303.615	14.800	46.000
9.600	-6.561	9.489	1.000	8.948	1721.526	28.451	303.580	14.800	46.000
9.700	-6.561	9.490	1.000	9.154	1709.331	29.046	303.508	14.800	45.603
9.800	-6.561	9.489	1.000	9.382	1688.383	29.622	303.456	14.800	45.600
9.900	-6.562	9.489	1.000	9.583	1692.474	30.257	303.391	14.800	45.600
10.000	-6.561	9.487	1.000	9.788	1700.422	30.912	303.345	14.800	45.600
10.100	-6.561	9.486	1.000	10.020	1703.384	31.514	303.298	14.800	45.600
10.200	-6.561	9.488	1.000	10.218	1679.762	31.613	303.272	14.800	45.600
10.300	-6.560	9.488	1.000	10.423	1681.766	32.134	303.231	14.800	45.600
10.400	-6.560	9.487	1.000	10.653	1710.221	32.917	303.142	14.800	45.600
10.500	-6.562	9.489	1.000	10.846	1706.655	33.709	303.100	14.800	45.997
10.600	-6.562	9.487	1.000	11.093	1691.553	34.263	303.038	14.800	46.000
10.700	-6.562	9.489	1.000	11.291	1688.569	35.136	302.960	14.800	46.000
10.800	-6.562	9.487	1.000	11.531	1702.492	35.933	302.881	14.800	46.000
10.900	-6.562	9.488	1.000	11.725	1703.834	36.692	302.833	14.800	46.387
11.000	-6.561	9.487	1.000	11.925	1687.421	37.154	302.774	14.800	46.400
11.100	-6.562	9.489	1.000	12.164	1707.916	38.146	302.701	14.800	46.400
11.200	-6.562	9.488	1.000	12.361	1732.588	38.983	302.632	14.800	46.400
11.300	-6.562	9.489	1.000	12.575	1713.673	39.601	302.593	14.800	46.400
11.400	-6.562	9.489	1.000	12.808	1697.808	40.083	302.541	14.800	46.400
11.500	-6.564	9.489	1.000	13.006	1720.801	40.918	302.465	14.800	46.400
11.600	-6.564	9.490	1.000	13.207	1724.589	41.447	302.414	14.800	46.400
11.700	-6.564	9.489	1.000	13.442	1696.528	42.132	302.364	14.800	46.400
11.800	-6.563	9.489	1.000	13.620	1714.179	42.821	302.283	14.800	46.400
11.900	-6.562	9.487	1.000	13.877	1729.651	43.693	302.209	14.800	46.400
12.000	-6.565	9.488	1.000	14.081	1698.896	44.091	302.180	14.800	46.785
12.100	-6.566	9.487	1.000	14.287	1708.600	44.913	302.099	14.800	47.197
12.200	-6.565	9.490	1.000	14.517	1738.223	46.183	302.016	14.800	49.149
12.300	-6.565	9.488	1.000	14.757	1741.968	46.286	301.984	14.800	49.200
12.400	-6.567	9.489	1.000	14.967	1806.578	47.457	301.873	14.800	49.200
12.500	-6.565	9.487	1.000	15.202	1852.529	50.065	301.672	14.800	49.200
12.600	-6.567	9.489	1.000	15.445	1812.298	50.965	301.578	14.800	49.200
12.700	-6.567	9.487	1.000	15.649	1835.185	51.534	301.514	14.800	49.200
12.800	-6.566	9.488	1.000	15.884	1840.219	52.666	301.429	14.800	49.200
12.900	-6.566	9.489	1.000	16.126	1813.403	53.195	301.368	14.800	49.200
13.000	-6.565	9.487	1.000	16.335	1836.751	53.944	301.305	14.800	49.200
13.100	-6.565	9.487	1.000	16.570	1828.051	54.991	301.224	14.800	49.200
13.200	-6.566	9.489	1.000	16.811	1812.128	55.289	301.189	14.800	49.200
13.300	-6.566	9.489	1.000	17.004	1832.852	56.565	301.069	14.800	49.200
13.400	-6.565	9.487	1.000	17.250	1806.372	56.907	301.053	14.800	49.200
13.500	-6.566	9.488	1.000	17.458	1828.717	57.628	300.979	14.800	49.200
13.600	-6.566	9.487	1.000	17.692	1839.497	58.661	300.867	14.800	49.200
13.700	-6.567	9.489	1.000	17.934	1817.945	59.014	300.855	14.800	49.200
13.800	-6.565	9.487	1.000	18.143	1828.422	60.237	300.751	14.409	49.200
13.900	-6.567	9.489	1.000	18.372	1804.299	60.625	300.696	14.400	49.200
14.000	-6.567	9.488	1.000	18.616	1834.018	61.751	300.596	14.400	49.200
14.100	-6.568	9.489	1.000	18.811	1817.064	62.264	300.537	14.400	49.200
14.200	-6.568	9.488	1.000	19.052	1824.317	63.195	300.464	14.400	49.200
14.300	-6.568	9.489	1.000	19.259	1829.778	63.779	300.382	14.400	49.200
14.400	-6.568	9.488	1.000	19.493	1810.033	63.826	300.370	14.400	49.200
14.500	-6.569	9.486	1.000	19.734	1833.917	64.631	300.293	14.400	49.599
14.600	-6.570	9.490	1.000	19.941	1806.726	65.602	300.227	14.400	49.600
14.700	-6.568	9.489	1.000	20.170	1837.548	66.057	300.173	14.400	49.600
14.800	-6.568	9.488	1.000	20.417	1819.890	67.588	300.033	14.400	49.994
14.900	-6.568	9.487	1.000	20.620	1857.306	67.891	299.986	14.400	50.000
15.000	-6.568	9.489	1.000	20.862	1849.321	69.632	299.853	14.400	50.396
15.100	-6.568	9.487	1.000	21.069	1859.092	70.098	299.766	14.400	50.400
15.200	-6.569	9.488	1.000	21.300	1855.858	71.672	299.657	14.400	50.400
15.300	-6.568	9.487	1.000	21.543	1867.728	72.190	299.591	14.400	50.008
15.400	-6.568	9.489	1.000	21.750	1858.350	73.254	299.513	14.400	50.000
15.500	-6.568	9.487	1.000	21.984	1851.202	73.337	299.478	14.400	50.000
15.600	-6.568	9.487	1.000	22.222	1839.061	74.076	299.413	14.400	50.000
15.700	-6.568	9.488	1.000	22.423	1854.964	74.903	299.331	14.400	50.000
15.800	-6.568	9.487	1.000	22.662	1841.051	75.497	299.284	14.400	50.000
15.900	-6.568	9.488	1.000	22.870	1840.091	76.505	299.188	14.400	50.000
16.000	-6.569	9.490	1.000	23.104	1826.975	76.977	299.141	14.400	50.000
16.100	-6.567	9.488	1.000	23.309	1854.632	78.082	299.035	14.400	50.000
16.200	-6.568	9.488	1.000	23.541	1832.238	78.514	298.982	14.400	50.000
16.300	-6.570	9.488	1.000	23.788	1837.388	79.607	298.875	14.400	50.000
16.400	-6.573	9.489	1.000	23.996	1839.814	80.338	298.811	14.400	50.000
16.500	-6.573	9.488	1.000	24.224	1854.154	80.412	298.799	14.400	50.000
16.600	-6.572	9.487	1.000	24.432	1836.012	81.112	298.718	14.400	50.000
16.700	-6.572	9.487	1.000	24.663	1837.503	82.003	298.653	14.400	50.000
16.800	-6.572	9.488	1.000	24.880	1834.008	82.345	298.609	14.400	50.000
16.900	-6.573	9.487	1.000	25.101	1807.004	83.162	298.503	14.400	50.000
17.000	-6.575	9.487	1.000	25.347	1801.648	83.120	298.500	14.400	50.000
17.100	-6.574	9.487	1.000	25.546	1787.537	83.507	298.444	14.400	50.000
17.200	-6.575	9.489	1.000	25.744	1789.804	84.061	298.408	14.400	50.000
17.300	-6.575	9.487	1.000	25.981	1767.517	83.719	298.403	14.400	50.000
17.400	-6.575	9.487	1.000	26.181	1756.972	84.055	298.377	14.400	50.000
17.500	-6.575	9.487	1.000	26.383	1762.019	84.744	298.297	14.400	50.000
17.600	-6.575	9.489	1.000	26.621	1733.455	84.387	298.316	14.400	50.000
17.700	-6.575	9.489	1.000	26.820	1728.170	84.900	298.258	14.400	50.000
17.800	-6.575	9.487	1.000	27.013	1727.672	84.999	298.248	14.400	50.000
17.900	-6.576	9.487	1.000	27.210	1702.722	84.925	298.229	14.400	50.000
18.000	-6.577	9.486	1.000	27.415	1694.077	85.643	298.151	14.400	50.000
18.100	-6.577	9.488	1.000	27.608	1690.045	85.327	298.165	14.400	50.000
18.200	-6.575	9.487	1.000	27.837	1672.249	85.312	298.147	14.400	50.000
18.300	-6.575	9.487	1.000	28.036	1661.289	85.943	298.102	14.400	50.000
18.400	-6.575	9.488	1.000	28.234	1652.989	85.853	298.100	14.400	50.000
18.500	-6.579	9.488	1.000	28.420	1639.377	85.662	298.100	14.400	50.000
18.600	-6.581	9.487	1.000	28.624	1628.519	85.652	298.081	14.400	50.000
18.700	-6.583	9.489	1.000	28.774	1619.409	86.241	298.010	14.400	50.000
18.800	-6.582	9.487	1.000	28.967	1608.914	86.390	297.996	14.400	50.000
18.900	-6.582	9.489	1.000	29.159	1588.867	85.935	298.010	14.400	50.000
19.000	-6.581	9.488	1.000	29.356	1591.988	86.316	297.974	14.400	50.000
19.100	-6.582	9.489	1.000	29.549	1580.305	86.718	297.947	14.400	50.000
19.200	-6.582	9.489	1.000	29.745	1565.564	86.198	297.952	14.400	50.398
19.300	-6.587	9.486	1.000	29.897	1571.508	86.308	297.927	14.400	50.797
19.400	-6.588	9.490	1.000	30.089	1576.178	87.512	297.835	14.400	51.982
19.500	-6.588	9.488	1.000	30.284	1581.310	88.181	297.775	14.400	53.585
19.600	-6.588	9.489	1.000	30.475	1637.408	89.626	297.665	14.400	55.184
19.700	-6.588	9.486	1.000	30.682	1667.083	92.619	297.424	14.400	56.781
19.800	-6.588	9.490	1.000	30.915	1691.801	95.567	297.189	14.400	57.195
19.900	-6.590	9.488	1.000	31.110	1730.298	97.945	296.987	14.400	57.200
20.000	-6.591	9.487	1.000	31.305	1714.464	98.332	296.956	14.400	57.200
20.100	-6.594	9.487	1.000	31.502	1704.619	98.747	296.902	14.400	57.200
20.200	-6.593	9.487	1.000	31.695	1707.472	99.383	296.821	14.400	57.200
20.300	-6.594	9.489	1.000	31.893	1685.872	99.525	296.801	14.400	57.200
20.400	-6.594	9.488	1.000	32.086	1683.625	98.785	296.829	14.400	57.200
20.500	-6.594	9.487	1.000	32.284	1678.490	99.491	296.752	14.400	57.596
20.600	-6.595	9.487	1.000	32.510	1678.172	100.622	296.670	14.400	57.996
20.700	-6.595	9.487	1.000	32.717	1692.082	100.797	296.650	14.400	58.000
20.800	-6.600	9.488	1.000	32.883	1674.006	101.720	296.562	14.400	58.000
20.900	-6.600	9.487	1.000	33.101	1663.292	101.530	296.559	14.400	58.000
21.000	-6.600	9.487	1.000	33.260	1664.488	101.210	296.555	14.400	58.000
21.100	-6.601	9.489	1.000	33.454	1646.033	101.610	296.503	14.400	58.000
21.200	-6.601	9.489	1.000	33.648	1644.482	101.796	296.475	14.400	58.000
21.300	-6.601	9.489	1.000	33.844	1631.559	102.238	296.434	14.400	58.000
21.400	-6.600	9.488	1.000	34.038	1614.128	102.108	296.438	14.400	58.000
21.500	-6.603	9.487	1.000	34.224	1614.154	101.504	296.467	14.400	58.000
21.600	-6.607	9.489	1.000	34.384	1594.843	101.365	296.448	14.400	58.000
21.700	-6.607	9.488	1.000	34.576	1594.097	101.752	296.410	14.400	58.000
21.800	-6.605	9.486	1.000	34.769	1572.774	101.817	296.397	14.400	58.000
21.900	-6.606	9.489	1.000	34.923	1559.214	101.768	296.393	14.400	58.000
22.000	-6.605	9.489	1.000	35.114	1564.338	101.939	296.371	14.400	58.000
22.100	-6.608	9.487	1.000	35.307	1539.854	101.688	296.383	14.400	58.000
22.200	-6.612	9.486	1.000	35.456	1544.228	101.600	296.360	14.400	58.000
22.300	-6.613	9.487	1.000	35.646	1529.408	101.531	296.368	14.400	58.000
22.400	-6.614	9.487	1.000	35.799	1521.960	101.541	296.344	14.400	58.000
22.500	-6.614	9.488	1.000	35.993	1515.888	101.633	296.317	14.400	58.000
22.600	-6.614	9.487	1.000	36.177	1494.300	101.686	296.315	14.400	58.000
22.700	-6.614	9.488	1.000	36.334	1493.581	101.691	296.300	14.400	58.000
22.800	-6.617	9.488	1.000	36.484	1474.519	101.650	296.281	14.400	58.000
22.900	-6.621	9.488	1.000	36.676	1473.163	101.341	296.311	14.400	58.000
23.000	-6.625	9.485	1.000	36.826	1467.193	101.093	296.311	14.400	58.000
23.100	-6.625	9.486	1.000	37.005	1456.414	100.928	296.300	14.400	58.000
23.200	-6.627	9.484	1.000	37.156	1459.594	101.088	296.278	14.400	58.000
23.300	-6.627	9.487	1.000	37.310	1443.562	101.101	296.258	14.400	58.000
23.400	-6.625	9.486	1.000	37.499	1449.372	101.374	296.217	14.400	58.000
23.500	-6.627	9.484	1.000	37.661	1434.038	101.745	296.193	14.400	58.388
23.600	-6.628	9.484	1.000	37.806	1434.950	101.683	296.169	14.400	58.400
23.700	-6.632	9.485	1.000	37.955	1429.963	102.015	296.132	14.400	58.798
23.800	-6.633	9.485	1.000	38.147	1431.283	102.324	296.111	14.400	58.800
23.900	-6.634	9.487	1.000	38.295	1437.174	103.095	296.046	14.400	59.197
24.000	-6.634	9.486	1.000	38.479	1427.670	103.634	295.992	14.400	59.597
24.100	-6.635	9.485	1.000	38.639	1441.277	104.047	295.933	14.400	60.392
24.200	-6.635	9.487	1.000	38.786	1435.036	104.663	295.864	14.400	61.587
24.300	-6.639	9.486	1.000	38.965	1467.805	106.196	295.739	14.400	63.181
24.400	-6.643	9.485	1.000	39.163	1484.186	108.511	295.524	14.400	65.551
24.500	-6.646	9.486	1.000	39.321	1546.409	112.186	295.242	14.400	68.787
24.600	-6.647	9.485	1.000	39.515	1604.489	116.954	294.881	14.400	71.186
24.700	-6.646	9.486	1.000	39.711	1657.706	121.563	294.516	14.400	72.392
24.800	-6.646	9.485	1.000	39.913	1699.944	125.170	294.210	14.400	73.194
24.900	-6.646	9.485	1.000	40.107	1711.129	125.719	294.160	14.400	73.200
25.000	-6.650	9.485	1.000	40.302	1733.135	127.061	294.024	14.400	73.596
25.100	-6.653	9.485	1.000	40.531	1723.918	128.259	293.916	14.400	73.600
25.200	-6.658	9.485	1.000	40.697	1730.037	128.703	293.873	14.400	73.600
25.300	-6.658	9.485	1.000	40.923	1719.145	129.280	293.793	14.005	73.600
25.400	-6.658	9.485	1.000	41.087	1718.311	129.633	293.753	14.000	73.600
25.500	-6.658	9.487	1.000	41.273	1695.702	129.463	293.728	14.000	73.600
25.600	-6.658	9.486	1.000	41.467	1700.295	129.405	293.715	14.000	73.600
25.700	-6.659	9.487	1.000	41.661	1677.569	129.304	293.691	14.000	73.600
25.800	-6.664	9.486	1.000	41.856	1679.546	129.250	293.687	14.000	73.600
25.900	-6.669	9.484	1.000	42.051	1666.743	129.451	293.650	14.000	73.600
26.000	-6.671	9.484	1.000	42.238	1662.867	129.435	293.624	14.000	73.600
26.100	-6.672	9.486	1.000	42.393	1643.381	129.353	293.607	14.000	72.831
26.200	-6.671	9.485	1.000	42.588	1634.130	128.780	293.625	14.000	72.800
26.300	-6.671	9.484	1.000	42.773	1594.087	127.508	293.695	14.000	72.800
26.400	-6.671	9.484	1.000	42.932	1598.447	127.149	293.713	14.000	72.800
26.500	-6.675	9.485	1.000	43.123	1583.838	127.072	293.711	14.000	72.800
26.600	-6.679	9.484	1.000	43.309	1584.800	127.096	293.690	14.000	72.800
26.700	-6.682	9.484	1.000	43.468	1574.444	127.366	293.650	14.000	72.800
26.800	-6.681	9.483	1.000	43.644	1572.225	127.106	293.644	14.000	72.800
26.900	-6.682	9.483	1.000	43.806	1557.588	127.355	293.627	14.000	72.800
27.000	-6.683	9.483	1.000	43.990	1560.687	127.391	293.615	14.000	73.195
27.100	-6.682	9.483	1.000	44.148	1542.001	127.289	293.584	14.000	73.200
27.200	-6.682	9.483	1.000	44.332	1550.297	127.550	293.558	14.000	73.598
27.300	-6.682	9.483	1.000	44.492	1548.784	127.918	293.508	14.000	73.600
27.400	-6.682	9.483	1.000	44.638	1553.564	128.527	293.447	14.000	73.600
27.500	-6.682	9.483	1.000	44.831	1528.600	128.518	293.428	14.000	73.600
27.600	-6.682	9.482	1.000	44.981	1536.240	128.510	293.400	14.000	73.600
27.700	-6.688	9.483	1.000	45.172	1523.889	128.783	293.356	14.000	73.600
27.800	-6.692	9.483	1.000	45.323	1523.651	128.900	293.329	14.000	73.600
27.900	-6.692	9.482	1.000	45.471	1511.931	128.838	293.326	14.000	73.600
28.000	-6.694	9.483	1.000	45.659	1520.500	128.933	293.316	14.000	73.600
28.100	-6.692	9.483	1.000	45.810	1503.758	128.718	293.314	14.000	73.600
28.200	-6.691	9.483	1.000	45.958	1501.500	128.641	293.291	14.000	73.600
28.300	-6.694	9.484	1.000	46.137	1488.042	128.438	293.280	14.000	73.600
28.400	-6.699	9.484	1.000	46.287	1485.437	128.704	293.266	14.000	73.600
28.500	-6.701	9.481	1.000	46.444	1478.536	128.749	293.238	14.000	73.600
28.600	-6.704	9.481	1.000	46.625	1470.518	128.843	293.207	14.000	73.600
28.700	-6.703	9.481	1.000	46.774	1471.580	128.952	293.188	14.000	73.600
28.800	-6.702	9.481	1.000	46.922	1460.494	128.978	293.167	14.000	73.600
28.900	-6.704	9.481	1.000	47.077	1458.310	128.589	293.169	14.000	73.600
29.000	-6.704	9.481	1.000	47.228	1441.087	128.257	293.177	14.000	73.600
29.100	-6.709	9.483	1.000	47.370	1442.945	128.202	293.185	14.000	73.600
29.200	-6.711	9.481	1.000	47.517	1437.619	128.171	293.173	14.000	73.600
29.300	-6.711	9.482	1.000	47.700	1442.449	128.720	293.099	14.000	75.153
29.400	-6.711	9.481	1.000	47.848	1442.265	129.348	293.056	14.000	78.667
29.500	-6.711	9.482	1.000	47.997	1457.515	130.375	292.939	14.000	83.556
29.600	-6.711	9.481	1.000	48.148	1461.401	131.584	292.840	14.000	87.161
29.700	-6.713	9.481	1.000	48.297	1453.535	131.902	292.786	14.000	91.074
29.800	-6.716	9.481	1.000	48.444	1447.334	132.067	292.763	14.000	93.567
29.900	-6.717	9.483	1.000	48.593	1425.398	131.312	292.801	14.000	96.385
30.000	-6.718	9.483	1.000	48.734	1426.466	131.383	292.771	14.000	96.795
30.100	-6.717	9.481	1.000	48.919	1427.039	131.439	292.747	14.000	96.800
30.200	-6.719	9.480	1.000	49.069	1430.585	131.751	292.702	14.000	96.800
30.300	-6.719	9.481	1.000	49.214	1412.423	131.318	292.713	14.000	96.800
30.400	-6.718	9.481	1.000	49.362	1395.530	130.956	292.733	14.000	96.800
30.500	-6.719	9.482	1.000	49.471	1393.310	130.638	292.739	14.000	97.188
30.600	-6.720	9.482	1.000	49.612	1372.390	129.531	292.801	14.000	97.595
30.700	-6.721	9.481	1.000	49.760	1376.574	129.459	292.794	14.000	98.765
30.800	-6.721	9.481	1.000	49.907	1370.254	129.727	292.784	14.000	99.996
30.900	-6.721	9.482	1.000	50.061	1371.644	130.423	292.718	14.000	100.000
31.000	-6.720	9.481	1.000	50.208	1366.910	130.438	292.676	14.000	100.000
31.100	-6.721	9.480	1.000	50.350	1347.585	128.983	292.760	14.000	100.000
31.200	-6.720	9.480	1.000	50.495	1344.670	128.670	292.791	14.000	100.000
31.300	-6.718	9.481	1.000	50.641	1338.816	128.630	292.772	14.000	100.000
31.400	-6.717	9.482	1.000	50.787	1339.787	128.999	292.735	14.000	100.000
31.500	-6.719	9.480	1.000	50.891	1340.283	129.763	292.678	14.000	100.000
31.600	-6.719	9.481	1.000	51.031	1322.829	129.430	292.672	14.000	100.000
31.700	-6.718	9.481	1.000	51.144	1309.345	128.464	292.730	14.000	100.000
31.800	-6.717	9.480	1.000	51.271	1304.415	127.857	292.750	14.000	100.000
31.900	-6.717	9.482	1.000	51.420	1301.520	128.437	292.701	14.000	100.000
32.000	-6.716	9.482	1.000	51.567	1288.438	128.167	292.702	14.000	100.000
32.100	-6.716	9.484	1.000	51.681	1267.293	127.019	292.777	14.000	100.000
32.200	-6.714	9.483	1.000	51.815	1259.962	126.823	292.781	14.000	100.000
32.300	-6.714	9.483	1.000	51.924	1255.389	127.566	292.712	14.000	100.000
32.400	-6.712	9.483	1.000	52.059	1260.870	127.164	292.716	14.000	100.000
32.500	-6.714	9.483	1.000	52.204	1254.879	127.719	292.667	14.000	100.000
32.600	-6.714	9.483	1.000	52.307	1251.705	128.322	292.610	14.000	100.000
32.700	-6.711	9.484	1.000	52.446	1239.187	127.542	292.647	14.000	100.000
32.800	-6.706	9.484	1.000	52.550	1233.363	126.624	292.702	14.000	100.000
32.900	-6.703	9.483	1.000	52.693	1244.694	126.480	292.697	14.000	100.000
33.000	-6.703	9.483	1.000	52.804	1247.164	127.463	292.619	14.000	100.000
33.100	-6.704	9.483	1.000	52.934	1244.795	127.488	292.591	14.000	100.000
33.200	-6.704	9.483	1.000	53.037	1234.003	126.221	292.660	14.000	100.000
33.300	-6.704	9.483	1.000	53.177	1215.482	125.889	292.696	14.000	100.000
33.400	-6.698	9.483	1.000	53.282	1222.732	125.738	292.695	13.605	100.000
33.500	-6.688	9.484	1.000	53.388	1218.540	125.890	292.675	13.600	100.000
33.600	-6.685	9.484	1.000	53.520	1216.997	125.454	292.682	13.600	100.000
33.700	-6.684	9.486	1.000	53.624	1214.312	126.060	292.624	13.600	100.000
33.800	-6.685	9.486	1.000	53.731	1191.659	125.971	292.611	13.600	100.000
33.900	-6.684	9.486	1.000	53.863	1184.571	124.357	292.716	13.600	100.000
34.000	-6.685	9.485	1.000	53.966	1192.592	124.192	292.716	13.600	100.000
34.100	-6.682	9.485	1.000	54.109	1180.090	124.893	292.656	13.600	100.000
34.200	-6.669	9.486	1.000	54.211	1182.813	124.775	292.637	13.600	100.000
34.300	-6.662	9.488	1.000	54.305	1184.756	125.119	292.605	13.600	100.000
34.400	-6.659	9.487	1.000	54.450	1182.479	125.659	292.556	13.600	100.000
34.500	-6.659	9.487	1.000	54.551	1189.538	125.702	292.537	13.600	100.000
34.600	-6.659	9.488	1.000	54.648	1189.960	125.720	292.525	13.600	100.000
34.700	-6.658	9.489	1.000	54.749	1174.655	125.886	292.495	13.600	100.000
34.800	-6.657	9.487	1.000	54.889	1159.161	124.499	292.571	13.600	100.000
34.900	-6.643	9.488	1.000	54.994	1161.092	124.304	292.584	13.600	100.000
35.000	-6.632	9.490	1.000	55.089	1158.939	124.957	292.529	13.600	100.000
35.100	-6.627	9.490	1.000	55.185	1159.638	124.861	292.515	13.600	100.000
35.200	-6.626	9.490	1.000	55.328	1156.260	124.890	292.497	13.600	100.000
35.300	-6.627	9.490	1.000	55.431	1154.783	125.897	292.407	13.600	100.000
35.400	-6.627	9.489	1.000	55.528	1159.860	126.166	292.386	13.600	100.000
35.500	-6.625	9.490	1.000	55.624	1157.457	125.672	292.387	13.600	100.000
35.600	-6.611	9.490	1.000	55.733	1154.925	125.788	292.347	13.600	100.000
35.700	-6.593	9.491	1.000	55.830	1145.943	126.687	292.291	13.600	100.000
35.800	-6.586	9.491	1.000	55.963	1118.888	124.553	292.435	13.600	100.000
35.900	-6.584	9.490	1.000	56.064	1118.054	123.721	292.478	13.600	100.000
36.000	-6.584	9.492	1.000	56.160	1128.633	124.063	292.443	13.600	100.000
36.100	-6.584	9.492	1.000	56.256	1128.497	124.073	292.413	13.600	100.000
36.200	-6.583	9.492	1.000	56.352	1123.309	124.644	292.374	13.600	100.000
36.300	-6.572	9.492	1.000	56.450	1124.610	124.680	292.357	13.600	100.000
36.400	-6.548	9.493	1.000	56.549	1115.408	124.575	292.356	13.600	100.000
36.500	-6.539	9.493	1.000	56.683	1119.852	124.981	292.323	13.600	100.000
36.600	-6.537	9.494	1.000	56.758	1112.191	124.747	292.304	13.600	100.000
36.700	-6.536	9.495	1.000	56.844	1096.327	123.389	292.390	13.600	100.000
36.800	-6.535	9.494	1.000	56.980	1120.043	124.511	292.275	13.600	100.000
36.900	-6.535	9.493	1.000	57.085	1125.489	125.589	292.186	13.600	100.000
37.000	-6.529	9.495	1.000	57.184	1119.403	126.548	292.129	13.600	100.000
37.100	-6.500	9.495	1.000	57.282	1119.313	126.261	292.115	13.600	100.000
37.200	-6.485	9.499	1.000	57.379	1103.898	125.265	292.171	13.600	100.000
37.300	-6.481	9.499	1.000	57.477	1089.400	124.777	292.197	13.600	100.000
37.400	-6.478	9.500	1.000	57.575	1092.404	124.207	292.215	13.600	100.000
37.500	-6.478	9.498	1.000	57.639	1095.648	124.058	292.205	13.600	100.000
37.600	-6.478	9.497	1.000	57.722	1067.069	124.436	292.168	13.600	100.000
37.700	-6.475	9.498	1.000	57.819	1015.043	121.231	292.369	13.600	100.000
37.800	-6.446	9.499	1.000	57.875	967.218	116.791	292.732	13.600	100.000
37.900	-6.421	9.501	1.000	57.958	907.718	111.473	293.121	13.600	100.000
38.000	-6.412	9.502	1.000	58.011	861.252	106.101	293.539	13.600	100.000
38.100	-6.409	9.502	1.000	58.061	813.574	101.704	293.863	13.600	100.000
38.200	-6.408	9.502	1.000	58.110	768.538	96.615	294.264	13.600	100.000
38.300	-6.408	9.501	1.000	58.157	736.623	92.901	294.565	13.600	100.000
38.400	-6.408	9.500	1.000	58.205	706.206	89.448	294.841	13.600	100.000
38.500	-6.390	9.503	1.000	58.256	661.081	86.303	295.107	13.600	100.000
38.600	-6.354	9.504	1.000	58.262	634.926	83.105	295.353	13.600	100.000
38.700	-6.340	9.504	1.000	58.303	608.688	79.758	295.615	13.600	100.000
38.800	-6.335	9.505	1.000	58.309	578.679	77.433	295.821	13.600	100.000
38.900	-6.335	9.506	1.000	58.319	558.619	74.667	296.007	13.600	100.000
39.000	-6.335	9.506	1.000	58.355	540.034	72.575	296.200	13.600	100.000
39.100	-6.333	9.504	1.000	58.368	512.768	70.449	296.367	13.600	100.000
39.200	-6.318	9.507	1.000	58.403	499.684	68.633	296.509	13.600	100.000
39.300	-6.278	9.509	1.000	58.408	486.996	67.284	296.625	13.600	100.000
39.400	-6.260	9.509	1.000	58.418	466.417	65.567	296.765	13.600	100.000
39.500	-6.252	9.509	1.000	58.452	460.019	65.275	296.809	13.600	100.000
39.600	-6.251	9.509	1.000	58.458	458.375	65.144	296.817	13.600	100.000
39.700	-6.251	9.509	1.000	58.458	442.214	63.834	296.936	13.600	100.000
39.800	-6.251	9.509	1.000	58.457	423.476	62.752	297.030	13.600	100.000
39.900	-6.245	9.509	1.000	58.498	425.663	61.720	297.119	13.600	100.000
40.000	-6.201	9.510	1.000	58.479	423.863	61.159	297.171	13.600	100.000
40.100	-6.171	9.515	1.000	58.503	413.143	60.835	297.200	13.600	100.000
40.200	-6.161	9.514	1.000	58.507	394.524	59.448	297.317	13.600	100.000
40.300	-6.158	9.516	1.000	58.505	392.719	59.022	297.361	13.600	100.000
40.400	-6.157	9.514	1.000	58.508	390.576	58.240	297.416	13.600	100.000
40.500	-6.155	9.515	1.000	58.506	376.880	57.209	297.504	13.600	100.000
40.600	-6.153	9.515	1.000	58.507	377.413	56.650	297.566	13.600	100.000
40.700	-6.109	9.516	1.000	58.505	367.400	56.362	297.600	13.600	100.000
40.800	-6.074	9.516	1.000	58.505	368.030	56.251	297.607	13.600	100.000
40.900	-6.061	9.517	1.000	58.505	371.862	55.872	297.638	13.600	100.000
41.000	-6.057	9.517	1.000	58.506	367.164	56.159	297.627	13.600	100.000
41.100	-6.057	9.517	1.000	58.505	363.846	55.474	297.681	13.600	100.000
41.200	-6.056	9.518	1.000	58.506	366.652	55.586	297.679	13.600	100.000
41.300	-6.056	9.518	1.000	58.506	362.920	55.468	297.689	13.600	100.000
41.400	-6.031	9.519	1.000	58.506	361.386	55.195	297.719	13.600	100.000
41.500	-5.979	9.521	1.000	58.522	368.076	55.614	297.693	13.600	100.000
41.600	-5.958	9.522	1.000	58.517	363.029	55.098	297.731	13.600	100.000
41.700	-5.951	9.522	1.000	58.508	352.937	54.875	297.744	13.600	100.000
41.800	-5.949	9.522	1.000	58.523	359.679	55.210	297.740	13.600	100.000
41.900	-5.949	9.522	1.000	58.518	363.466	54.831	297.764	13.600	100.000
42.000	-5.948	9.523	1.000	58.532	364.101	55.434	297.723	13.600	100.000
42.100	-5.928	9.524	1.000	58.551	365.022	55.391	297.740	13.600	100.000
42.200	-5.872	9.525	1.000	58.555	359.566	55.389	297.750	13.600	100.000
42.300	-5.847	9.526	1.000	58.556	360.012	55.013	297.761	13.600	100.000
42.400	-5.840	9.526	1.000	58.555	360.300	54.852	297.779	13.600	100.000
42.500	-5.837	9.527	1.000	58.554	359.416	55.242	297.752	13.600	100.000
42.600	-5.836	9.528	1.000	58.553	362.485	54.775	297.767	13.600	100.000
42.700	-5.836	9.527	1.000	58.555	360.039	55.437	297.749	13.600	100.000
42.800	-5.831	9.526	1.000	58.554	353.333	54.478	297.806	13.600	100.000
42.900	-5.774	9.528	1.000	58.554	356.021	54.579	297.816	13.600	100.000
43.000	-5.735	9.531	1.000	58.554	362.278	55.071	297.769	13.600	100.000
43.100	-5.722	9.530	1.000	58.556	357.447	54.197	297.822	13.600	100.000
43.200	-5.718	9.531	1.000	58.555	352.336	55.051	297.798	13.600	100.000
43.300	-5.717	9.531	1.000	58.555	355.355	54.280	297.832	13.600	100.000
43.400	-5.715	9.531	1.000	58.555	359.645	54.688	297.817	13.600	100.000
43.500	-5.712	9.530	1.000	58.556	343.263	53.250	297.893	13.600	100.000
43.600	-5.658	9.532	1.000	58.553	346.567	53.781	297.905	13.600	100.000
43.700	-5.613	9.534	1.000	58.554	356.258	54.041	297.868	13.600	100.000
43.800	-5.598	9.533	1.000	58.555	346.819	53.913	297.871	13.600	100.000
43.900	-5.594	9.533	1.000	58.555	342.086	53.092	297.924	13.600	100.000
44.000	-5.594	9.534	1.000	58.553	346.868	53.734	297.887	13.600	100.000
44.100	-5.593	9.533	1.000	58.554	348.953	53.132	297.928	13.600	100.000
44.200	-5.592	9.535	1.000	58.554	344.329	53.697	297.906	13.600	100.000
44.300	-5.559	9.534	1.000	58.555	347.200	53.358	297.932	13.600	100.000
44.400	-5.495	9.535	1.000	58.555	350.653	53.626	297.925	13.600	100.000
44.500	-5.473	9.535	1.000	58.554	344.314	53.294	297.944	13.600	100.000
44.600	-5.467	9.535	1.000	58.555	345.166	53.227	297.930	13.600	100.000
44.700	-5.463	9.535	1.000	58.555	343.894	54.158	297.873	13.600	100.000
44.800	-5.463	9.535	1.000	58.555	345.830	53.395	297.943	13.600	100.000
44.900	-5.462	9.535	1.000	58.553	343.198	53.735	297.926	13.600	100.000
45.000	-5.438	9.535	1.000	58.553	341.188	53.282	297.940	13.600	100.000
45.100	-5.369	9.536	1.000	58.553	345.522	54.006	297.885	13.600	100.000
45.200	-5.345	9.536	1.000	58.555	340.558	53.362	297.920	13.600	100.000
45.300	-5.336	9.538	1.000	58.554	340.534	52.996	297.948	13.600	100.000
45.400	-5.334	9.536	1.000	58.554	340.897	53.625	297.930	13.600	100.000
45.500	-5.332	9.536	1.000	58.554	344.420	53.515	297.940	13.600	100.000
45.600	-5.333	9.537	1.000	58.554	347.812	53.880	297.915	13.600	100.000
45.700	-5.327	9.539	1.000	58.553	344.417	53.110	297.954	13.600	100.000
45.800	-5.261	9.539	1.000	58.554	342.344	53.993	297.890	13.600	100.000
45.900	-5.219	9.537	1.000	58.554	345.289	54.027	297.894	13.205	100.000
46.000	-5.207	9.537	1.000	58.553	346.006	53.626	297.924	13.200	100.000
46.100	-5.203	9.538	1.000	58.554	333.641	53.287	297.933	13.200	100.000
46.200	-5.201	9.536	1.000	58.553	344.298	54.044	297.892	13.200	100.000
46.300	-5.201	9.538	1.000	58.553	342.341	53.736	297.908	13.200	100.000
46.400	-5.196	9.538	1.000	58.554	341.271	53.616	297.913	13.200	100.000
46.500	-5.134	9.536	1.000	58.553	347.472	53.102	297.961	13.200	100.000
46.600	-5.085	9.537	1.000	58.553	345.220	53.807	297.920	13.200	100.000
46.700	-5.071	9.538	1.000	58.563	352.361	53.571	297.899	13.200	100.000
46.800	-5.065	9.537	1.000	58.606	408.529	54.827	297.711	13.200	100.000
46.900	-5.065	9.537	1.000	58.657	582.632	67.486	296.899	13.200	100.000
47.000	-5.065	9.535	1.000	58.751	770.157	84.504	295.571	13.200	100.000
47.100	-5.063	9.538	1.000	58.848	934.793	102.660	294.153	13.200	100.000
47.200	-5.032	9.536	1.000	58.943	998.986	114.302	293.210	13.200	100.000
47.300	-4.965	9.536	1.000	59.008	977.663	116.010	293.039	13.200	100.000
47.400	-4.943	9.535	1.000	59.090	983.045	116.539	292.969	13.200	100.000
47.500	-4.934	9.537	1.000	59.189	989.616	116.832	292.911	13.200	100.000
47.600	-4.932	9.536	1.000	59.252	983.867	117.499	292.804	13.200	100.000
47.700	-4.933	9.538	1.000	59.337	984.495	116.722	292.812	13.200	100.000
47.800	-4.932	9.538	1.000	59.434	986.451	117.485	292.744	13.200	100.000
47.900	-4.905	9.539	1.000	59.486	981.396	116.641	292.789	13.200	100.000
48.000	-4.837	9.538	1.000	59.580	954.943	116.340	292.798	13.200	100.000
48.100	-4.812	9.537	1.000	59.677	949.683	115.040	292.881	13.200	100.000
48.200	-4.803	9.535	1.000	59.731	954.017	114.297	292.912	13.200	100.000
48.300	-4.799	9.535	1.000	59.825	953.285	115.226	292.817	13.200	100.000
48.400	-4.799	9.536	1.000	59.912	955.216	115.044	292.791	13.200	100.000
48.500	-4.799	9.537	1.000	59.973	953.066	115.362	292.765	13.200	100.000
48.600	-4.793	9.535	1.000	60.069	954.272	115.705	292.705	13.200	100.000
48.700	-4.729	9.535	1.000	60.122	948.528	115.812	292.687	13.200	100.000
48.800	-4.688	9.535	1.000	60.218	941.457	115.670	292.646	13.200	100.000
48.900	-4.674	9.534	1.000	60.267	924.793	114.221	292.744	13.200	100.000
49.000	-4.670	9.534	1.000	60.362	925.313	113.683	292.791	13.200	100.000
49.100	-4.669	9.535	1.000	60.415	922.133	113.080	292.819	13.200	100.000
49.200	-4.669	9.533	1.000	60.508	920.838	113.655	292.758	13.200	100.000
49.300	-4.665	9.535	1.000	60.595	920.158	113.735	292.723	13.200	100.000
49.400	-4.607	9.531	1.000	60.658	918.962	113.909	292.695	13.200	100.000
49.500	-4.562	9.529	1.000	60.742	920.087	113.620	292.690	13.200	100.000
49.600	-4.548	9.529	1.000	60.804	921.651	114.330	292.629	13.200	100.000
49.700	-4.543	9.529	1.000	60.887	918.462	114.222	292.610	13.200	100.000
49.800	-4.542	9.528	1.000	60.950	901.078	112.705	292.707	13.200	100.000
49.900	-4.542	9.531	1.000	61.001	890.601	111.111	292.805	13.200	100.000
50.000	-4.540	9.528	1.000	61.095	886.429	111.899	292.761	13.200	100.000
50.100	-4.512	9.529	1.000	61.147	896.202	112.060	292.735	13.200	100.000
50.200	-4.451	9.524	1.000	61.231	894.220	112.274	292.699	13.200	100.000
50.300	-4.430	9.523	1.000	61.294	892.863	112.167	292.700	13.200	100.000
50.400	-4.423	9.524	1.000	61.345	896.324	111.539	292.708	13.200	100.000
50.500	-4.422	9.523	1.000	61.427	896.738	112.861	292.607	13.200	100.000
50.600	-4.422	9.522	1.000	61.490	890.133	112.178	292.642	13.200	100.000
50.700	-4.420	9.522	1.000	61.539	870.195	111.238	292.689	13.200	100.000
50.800	-4.399	9.521	1.000	61.621	865.161	110.071	292.749	13.200	100.000
50.900	-4.335	9.516	1.000	61.683	869.557	110.667	292.727	13.200	100.000
51.000	-4.311	9.516	1.000	61.732	867.774	110.188	292.738	13.200	100.000
51.100	-4.303	9.516	1.000	61.815	868.287	110.540	292.701	13.200	100.000
51.200	-4.301	9.514	1.000	61.878	863.877	109.817	292.736	13.200	100.000
51.300	-4.300	9.513	1.000	61.927	864.310	110.606	292.660	13.200	100.000
51.400	-4.300	9.516	1.000	62.011	862.165	110.344	292.664	13.200	100.000
51.500	-4.294	9.512	1.000	62.061	848.559	110.145	292.666	13.200	100.000
51.600	-4.238	9.509	1.000	62.119	829.615	107.608	292.831	13.200	100.000
51.700	-4.204	9.506	1.000	62.171	831.572	107.810	292.828	13.200	100.000
51.800	-4.191	9.506	1.000	62.256	829.641	107.593	292.815	13.200	100.000
51.900	-4.190	9.505	1.000	62.305	834.177	108.279	292.783	13.200	100.000
52.000	-4.188	9.507	1.000	62.364	839.188	108.210	292.782	13.200	100.000
52.100	-4.188	9.506	1.000	62.414	833.861	108.500	292.734	13.200	100.000
52.200	-4.185	9.506	1.000	62.505	834.385	108.552	292.711	13.200	100.000
52.300	-4.134	9.499	1.000	62.557	830.133	108.567	292.699	13.200	100.000
52.400	-4.094	9.496	1.000	62.606	828.905	108.606	292.694	13.200	100.000
52.500	-4.081	9.494	1.000	62.663	833.905	108.469	292.700	13.200	100.000
52.600	-4.077	9.493	1.000	62.714	833.918	108.844	292.640	13.200	100.000
52.700	-4.076	9.495	1.000	62.800	835.621	108.916	292.621	13.200	100.000
52.800	-4.075	9.494	1.000	62.849	831.696	108.867	292.626	13.200	100.000
52.900	-4.074	9.494	1.000	62.899	807.202	108.003	292.644	13.200	100.000
53.000	-4.049	9.492	1.000	62.948	801.909	105.981	292.787	13.200	100.000
53.100	-3.995	9.487	1.000	63.009	808.694	106.903	292.728	13.200	100.000
53.200	-3.976	9.484	1.000	63.058	803.115	106.786	292.723	13.200	100.000
53.300	-3.971	9.482	1.000	63.105	800.379	106.736	292.721	13.200	100.000
53.400	-3.969	9.483	1.000	63.155	803.301	106.625	292.717	13.200	100.000
53.500	-3.968	9.483	1.000	63.239	806.004	106.838	292.693	13.200	100.000
53.600	-3.968	9.483	1.000	63.288	805.521	106.798	292.673	13.200	100.000
53.700	-3.948	9.481	1.000	63.337	798.372	107.133	292.649	13.200	100.000
53.800	-3.893	9.477	1.000	63.397	801.933	106.642	292.660	13.200	100.000
53.900	-3.870	9.476	1.000	63.449	807.464	107.451	292.590	13.200	100.000
54.000	-3.866	9.473	1.000	63.495	805.604	107.619	292.570	13.200	100.000
54.100	-3.864	9.471	1.000	63.545	800.429	107.485	292.566	13.200	100.000
54.200	-3.863	9.474	1.000	63.593	802.440	107.621	292.548	13.200	100.000
54.300	-3.864	9.473	1.000	63.642	797.975	107.338	292.552	13.200	100.000
54.400	-3.858	9.472	1.000	63.691	774.694	105.500	292.674	13.200	100.000
54.500	-3.808	9.466	1.000	63.774	779.082	105.170	292.717	13.200	100.000
54.600	-3.775	9.462	1.000	63.827	781.261	104.973	292.710	13.200	100.000
54.700	-3.766	9.461	1.000	63.875	780.718	105.058	292.692	13.200	100.000
54.800	-3.763	9.461	1.000	63.925	778.794	104.889	292.686	13.200	100.000
54.900	-3.760	9.461	1.000	63.971	775.499	105.245	292.669	13.200	100.000
55.000	-3.761	9.461	1.000	64.022	774.858	105.363	292.650	13.200	100.000
55.100	-3.756	9.458	1.000	64.073	772.624	104.984	292.653	13.200	100.000
55.200	-3.712	9.453	1.000	64.122	776.316	105.476	292.601	13.200	100.000
55.300	-3.673	9.448	1.000	64.170	772.833	105.142	292.609	13.200	100.000
55.400	-3.664	9.447	1.000	64.219	775.922	105.677	292.575	13.200	100.000
55.500	-3.659	9.446	1.000	64.267	774.355	105.104	292.599	13.200	100.000
55.600	-3.658	9.445	1.000	64.328	780.045	105.477	292.577	13.200	100.000
55.700	-3.659	9.446	1.000	64.369	773.451	105.553	292.553	13.200	100.000
55.800	-3.658	9.445	1.000	64.414	759.560	103.943	292.642	13.200	100.000
55.900	-3.634	9.442	1.000	64.462	746.624	103.320	292.691	13.200	100.000
56.000	-3.586	9.433	1.000	64.511	747.005	102.569	292.733	12.801	100.000
56.100	-3.569	9.430	1.000	64.560	750.862	103.367	292.681	12.800	100.000
56.200	-3.563	9.427	1.000	64.610	751.572	102.955	292.690	12.800	100.000
56.300	-3.560	9.427	1.000	64.624	751.809	103.387	292.650	12.800	100.000
56.400	-3.560	9.427	1.000	64.669	752.682	103.496	292.646	12.800	100.000
56.500	-3.559	9.428	1.000	64.718	750.654	103.381	292.647	12.800	100.000
56.600	-3.542	9.424	1.000	64.766	752.585	103.178	292.630	12.800	100.000
56.700	-3.491	9.418	1.000	64.814	742.940	103.652	292.591	12.800	100.000
56.800	-3.472	9.414	1.000	64.863	751.093	103.303	292.598	12.800	100.000
56.900	-3.465	9.413	1.000	64.904	749.473	103.781	292.574	12.800	100.000
57.000	-3.462	9.413	1.000	64.949	743.525	103.638	292.572	12.800	100.000
57.100	-3.460	9.413	1.000	64.999	735.721	102.919	292.596	12.800	100.000
57.200	-3.462	9.413	1.000	65.046	718.364	101.304	292.724	12.800	100.000
57.300	-3.457	9.412	1.000	65.097	712.167	100.291	292.800	12.800	100.000
57.400	-3.412	9.405	1.000	65.112	715.551	100.833	292.751	12.800	100.000
57.500	-3.381	9.400	1.000	65.156	717.512	100.462	292.766	12.800	100.000
57.600	-3.372	9.397	1.000	65.206	718.447	100.993	292.732	12.800	100.000
57.700	-3.369	9.397	1.000	65.243	721.101	100.958	292.718	12.800	100.000
57.800	-3.367	9.396	1.000	65.292	722.254	101.036	292.707	12.800	100.000
57.900	-3.368	9.396	1.000	65.340	718.621	101.425	292.673	12.800	95.221
58.000	-3.365	9.395	1.000	65.353	712.394	101.012	292.682	12.800	93.211
58.100	-3.322	9.388	1.000	65.400	713.873	101.121	292.676	12.800	95.186
58.200	-3.289	9.380	1.000	65.437	716.036	101.272	292.648	12.800	95.200
58.300	-3.278	9.379	1.000	65.497	714.062	101.256	292.643	12.800	95.200
58.400	-3.276	9.377	1.000	65.535	713.240	101.532	292.601	12.800	95.992
58.500	-3.274	9.377	1.000	65.582	718.698	101.617	292.583	12.800	95.604
58.600	-3.273	9.377	1.000	65.631	715.404	101.685	292.568	12.800	93.625
58.700	-3.272	9.377	1.000	65.646	715.448	101.676	292.568	12.800	90.837
58.800	-3.251	9.372	1.000	65.683	703.241	101.254	292.595	12.800	89.207
58.900	-3.204	9.364	1.000	65.730	687.836	99.924	292.686	12.800	88.007
59.000	-3.187	9.359	1.000	65.779	683.431	99.079	292.737	12.800	87.211
59.100	-3.184	9.359	1.000	65.795	687.335	98.680	292.760	12.800	86.806
59.200	-3.182	9.358	1.000	65.828	689.289	98.862	292.747	12.800	85.214
59.300	-3.180	9.359	1.000	65.878	683.516	98.695	292.737	12.800	81.637
59.400	-3.180	9.358	1.000	65.927	681.268	98.777	292.723	12.800	78.039
59.500	-3.164	9.354	1.000	65.941	676.066	98.870	292.711	12.800	74.838
59.600	-3.117	9.344	1.000	65.977	688.786	98.934	292.696	12.800	72.037
59.700	-3.096	9.341	1.000	66.022	684.177	99.153	292.671	12.800	68.415
59.800	-3.090	9.338	1.000	66.072	676.081	98.850	292.691	12.800	66.013
59.900	-3.089	9.340	1.000	66.078	676.061	98.595	292.697	12.800	63.219
60.000	-3.088	9.340	1.000	66.130	676.841	99.037	292.653	12.800	60.427
60.100	-3.089	9.340	1.000	66.171	677.246	99.155	292.636	12.800	60.006
60.200	-3.084	9.338	1.000	66.183	679.303	99.472	292.604	12.800	59.214
60.300	-3.040	9.329	1.000	66.221	662.224	98.772	292.621	12.800	50.890
60.400	-3.012	9.322	1.000	66.268	645.763	96.248	292.810	12.800	45.266
60.500	-3.003	9.318	1.000	66.317	654.100	96.382	292.821	12.800	43.621
60.600	-3.000	9.318	1.000	66.322	658.887	96.562	292.801	12.800	36.454
60.700	-3.000	9.317	1.000	66.322	650.106	96.112	292.801	12.800	32.818
60.800	-3.000	9.317	1.000	66.321	551.162	92.373	292.971	12.800	32.800
60.900	-2.996	9.316	1.000	66.365	480.401	82.657	293.814	12.800	32.800
61.000	-2.955	9.307	1.000	66.371	495.491	78.618	294.160	12.800	32.007
61.100	-2.924	9.300	1.000	66.370	490.822	78.634	294.165	12.800	27.643
61.200	-2.912	9.296	1.000	66.353	466.675	76.774	294.243	12.800	21.668
61.300	-2.911	9.296	1.000	66.324	350.898	68.783	294.752	12.800	20.809
61.400	-2.910	9.297	1.000	66.303	233.349	56.395	295.819	12.800	20.800
61.500	-2.908	9.296	1.000	66.274	238.908	50.886	296.341	12.800	20.800
61.600	-2.908	9.296	1.000	66.273	232.381	49.748	296.465	12.800	21.595
61.700	-2.887	9.290	1.000	66.228	238.594	50.277	296.459	12.800	24.382
61.800	-2.843	9.278	1.000	66.222	271.281	51.794	296.365	12.800	26.782
61.900	-2.824	9.277	1.000	66.223	334.983	57.569	295.934	12.800	27.593
62.000	-2.820	9.274	1.000	66.224	375.132	63.049	295.465	12.800	28.392
62.100	-2.818	9.274	1.000	66.224	393.867	66.816	295.208	12.800	28.400
62.200	-2.816	9.274	1.000	66.223	404.487	68.624	295.080	12.800	28.400
62.300	-2.816	9.275	1.000	66.224	403.409	68.766	295.066	12.800	28.400
62.400	-2.801	9.268	1.000	66.224	402.036	69.100	295.041	12.800	28.400
62.500	-2.754	9.259	1.000	66.224	399.649	69.144	295.043	12.800	27.604
62.600	-2.734	9.255	1.000	66.223	394.070	67.745	295.128	12.800	24.412
62.700	-2.730	9.253	1.000	66.206	364.633	66.901	295.162	12.800	20.431
62.800	-2.726	9.253	1.000	66.177	270.032	62.716	295.396	12.800	20.400
62.900	-2.725	9.253	1.000	66.174	210.210	53.454	296.180	12.800	20.796
63.000	-2.725	9.255	1.000	66.130	208.222	49.264	296.550	12.800	21.194
63.100	-2.722	9.249	1.000	66.126	220.071	49.637	296.562	12.800	21.595
63.200	-2.673	9.242	1.000	66.084	239.512	49.957	296.542	12.800	21.600
63.300	-2.646	9.236	1.000	66.077	237.393	51.021	296.483	12.800	21.600
63.400	-2.635	9.233	1.000	66.059	239.806	51.157	296.478	12.800	21.998
63.500	-2.633	9.231	1.000	66.031	247.937	51.306	296.469	12.800	22.000
63.600	-2.631	9.231	1.000	66.029	249.552	52.508	296.410	12.800	22.000
63.700	-2.631	9.231	1.000	65.986	239.750	52.405	296.422	12.800	21.603
63.800	-2.628	9.231	1.000	65.980	234.956	52.100	296.431	12.800	21.204
63.900	-2.588	9.221	1.000	65.935	228.285	51.428	296.482	12.800	20.805
64.000	-2.555	9.214	1.000	65.931	225.206	50.356	296.556	12.800	20.405
64.100	-2.544	9.211	1.000	65.886	211.087	49.458	296.628	12.800	20.400
64.200	-2.541	9.211	1.000	65.883	196.883	48.599	296.716	12.800	20.400
64.300	-2.541	9.211	1.000	65.865	208.666	48.688	296.717	12.800	21.196
64.400	-2.541	9.211	1.000	65.835	216.139	49.563	296.675	12.800	21.200
64.500	-2.540	9.211	1.000	65.816	225.010	49.517	296.679	12.800	21.200
64.600	-2.518	9.203	1.000	65.787	239.198	50.061	296.630	12.800	21.597
64.700	-2.473	9.192	1.000	65.786	243.465	50.940	296.573	12.800	27.501
64.800	-2.455	9.188	1.000	65.795	321.060	51.200	296.471	12.800	28.788
64.900	-2.449	9.186	1.000	65.830	409.321	58.642	295.915	12.800	28.800
65.000	-2.447	9.185	1.000	65.809	407.825	67.172	295.329	12.800	28.405
65.100	-2.446	9.185	1.000	65.831	403.394	68.544	295.219	12.800	28.400
65.200	-2.447	9.185	1.000	65.806	404.253	68.797	295.172	12.800	28.400
65.300	-2.430	9.179	1.000	65.830	395.491	68.695	295.180	12.800	28.400
65.400	-2.384	9.168	1.000	65.833	402.019	68.052	295.212	12.800	28.400
65.500	-2.368	9.165	1.000	65.833	404.547	68.294	295.196	12.800	28.400
65.600	-2.362	9.163	1.000	65.833	396.445	68.074	295.198	12.800	28.400
65.700	-2.362	9.161	1.000	65.833	397.946	68.443	295.166	12.800	28.400
65.800	-2.360	9.162	1.000	65.832	397.448	68.434	295.174	12.800	28.005
65.900	-2.362	9.161	1.000	65.788	385.756	67.995	295.196	12.800	23.655
66.000	-2.357	9.159	1.000	65.785	319.278	64.787	295.406	12.800	20.810
66.100	-2.317	9.149	1.000	65.740	235.294	55.140	296.106	12.800	20.800
66.200	-2.292	9.143	1.000	65.735	216.668	49.895	296.517	12.800	21.198
66.300	-2.281	9.140	1.000	65.690	229.754	49.362	296.621	12.800	21.200
66.400	-2.278	9.140	1.000	65.686	236.577	49.729	296.621	12.800	21.200
66.500	-2.277	9.138	1.000	65.686	232.158	50.045	296.609	12.800	21.200
66.600	-2.276	9.138	1.000	65.670	231.105	50.022	296.606	12.800	21.200
66.700	-2.274	9.137	1.000	65.638	230.131	50.307	296.588	12.800	21.200
66.800	-2.238	9.124	1.000	65.618	228.784	50.541	296.585	12.800	21.200
66.900	-2.210	9.117	1.000	65.592	227.585	50.516	296.592	12.800	21.595
67.000	-2.200	9.114	1.000	65.589	238.242	50.038	296.602	12.800	21.600
67.100	-2.197	9.114	1.000	65.543	242.698	51.197	296.540	12.800	21.997
67.200	-2.196	9.114	1.000	65.539	247.757	51.000	296.559	12.800	22.795
67.300	-2.196	9.113	1.000	65.538	266.457	51.904	296.478	12.800	23.197
67.400	-2.195	9.113	1.000	65.538	275.731	53.765	296.360	12.800	23.200
67.500	-2.177	9.106	1.000	65.495	274.428	54.237	296.310	12.800	23.200
67.600	-2.141	9.094	1.000	65.492	279.045	54.841	296.280	12.800	23.200
67.700	-2.126	9.089	1.000	65.491	281.254	54.866	296.269	12.800	24.780
67.800	-2.124	9.088	1.000	65.491	307.355	55.415	296.171	12.800	27.562
67.900	-2.120	9.088	1.000	65.491	368.215	59.810	295.895	12.800	28.389
68.000	-2.120	9.088	1.000	65.492	401.556	64.700	295.526	12.800	28.400
68.100	-2.120	9.086	1.000	65.492	399.671	67.069	295.328	12.800	28.003
68.200	-2.108	9.080	1.000	65.492	403.210	67.218	295.302	12.800	28.000
68.300	-2.069	9.068	1.000	65.492	393.921	66.575	295.325	12.800	28.000
68.400	-2.053	9.061	1.000	65.492	398.339	66.763	295.324	12.800	28.000
68.500	-2.050	9.059	1.000	65.492	395.651	66.447	295.332	12.800	28.000
68.600	-2.048	9.060	1.000	65.492	395.740	66.412	295.336	12.800	28.000
68.700	-2.046	9.058	1.000	65.492	396.561	66.210	295.342	12.800	28.000
68.800	-2.044	9.059	1.000	65.490	401.770	66.395	295.319	12.800	28.398
68.900	-2.042	9.057	1.000	65.491	397.768	66.594	295.295	12.800	29.991
69.000	-2.011	9.045	1.000	65.492	422.773	66.644	295.260	12.800	30.391
69.100	-1.987	9.037	1.000	65.501	449.574	68.780	295.095	12.800	30.797
69.200	-1.979	9.033	1.000	65.518	447.144	71.353	294.921	12.800	30.800
69.300	-1.977	9.033	1.000	65.537	457.185	72.063	294.855	12.800	30.800
69.400	-1.977	9.034	1.000	65.538	454.880	72.523	294.803	12.800	31.196
69.500	-1.976	9.035	1.000	65.539	459.786	73.007	294.763	12.800	31.200
69.600	-1.974	9.032	1.000	65.538	460.846	73.139	294.741	12.800	31.200
69.700	-1.944	9.021	1.000	65.549	465.750	73.721	294.694	12.800	31.200
69.800	-1.922	9.010	1.000	65.585	461.017	73.681	294.677	12.800	31.598
69.900	-1.914	9.005	1.000	65.588	466.549	73.837	294.647	12.800	31.600
70.000	-1.911	9.005	1.000	65.589	474.358	74.548	294.607	12.800	31.600
70.100	-1.911	9.004	1.000	65.588	467.989	74.756	294.576	12.403	31.600
70.200	-1.909	9.005	1.000	65.632	460.972	74.876	294.549	12.400	31.600
70.300	-1.909	9.006	1.000	65.636	458.823	74.833	294.549	12.400	31.600
70.400	-1.896	8.998	1.000	65.637	459.776	74.749	294.541	12.400	31.205
70.500	-1.866	8.987	1.000	65.635	455.110	74.698	294.534	12.400	29.632
70.600	-1.853	8.980	1.000	65.636	428.147	72.490	294.674	12.400	25.618
70.700	-1.850	8.978	1.000	65.618	385.362	68.107	294.998	12.400	22.018
70.800	-1.849	8.980	1.000	65.591	286.293	58.677	295.707	12.400	21.603
70.900	-1.848	8.978	1.000	65.570	247.202	52.935	296.170	12.400	21.203
71.000	-1.848	8.978	1.000	65.541	240.598	50.756	296.366	12.400	20.804
71.100	-1.838	8.970	1.000	65.521	229.053	50.158	296.436	12.400	20.404
71.200	-1.804	8.958	1.000	65.494	231.742	49.649	296.476	12.400	19.609
71.300	-1.792	8.952	1.000	65.492	213.214	49.435	296.484	12.400	19.600
71.400	-1.787	8.951	1.000	65.446	199.725	47.655	296.641	12.400	19.600
71.500	-1.789	8.951	1.000	65.442	192.185	46.155	296.765	12.400	19.998
71.600	-1.787	8.951	1.000	65.399	202.712	46.172	296.777	12.400	20.000
71.700	-1.786	8.952	1.000	65.393	217.140	47.027	296.727	12.400	20.397
71.800	-1.783	8.948	1.000	65.350	215.879	47.516	296.701	12.400	20.400
71.900	-1.756	8.934	1.000	65.344	220.700	47.796	296.680	12.400	20.400
72.000	-1.736	8.926	1.000	65.327	225.250	48.242	296.648	12.400	20.400
72.100	-1.728	8.921	1.000	65.299	225.257	48.523	296.639	12.400	20.400
72.200	-1.727	8.920	1.000	65.277	221.914	48.094	296.670	12.400	20.400
72.300	-1.727	8.920	1.000	65.248	226.385	48.220	296.670	12.400	20.400
72.400	-1.727	8.919	1.000	65.245	223.355	48.118	296.664	12.400	20.798
72.500	-1.726	8.919	1.000	65.205	235.808	48.471	296.627	12.400	21.195
72.600	-1.701	8.908	1.000	65.200	245.099	49.401	296.575	12.400	22.393
72.700	-1.680	8.900	1.000	65.200	258.701	50.606	296.492	12.400	22.400
72.800	-1.672	8.895	1.000	65.178	269.109	52.068	296.396	12.400	22.400
72.900	-1.670	8.894	1.000	65.152	265.695	52.539	296.362	12.400	22.400
73.000	-1.669	8.893	1.000	65.150	252.906	52.442	296.359	12.400	22.400
73.100	-1.668	8.893	1.000	65.124	254.137	52.774	296.342	12.400	22.400
73.200	-1.668	8.894	1.000	65.104	252.337	52.946	296.334	12.400	23.190
73.300	-1.656	8.884	1.000	65.103	270.886	52.790	296.321	12.400	25.590
73.400	-1.630	8.870	1.000	65.103	309.119	54.055	296.208	12.400	27.590
73.500	-1.619	8.865	1.000	65.103	363.226	57.659	295.958	12.400	29.589
73.600	-1.617	8.864	1.000	65.143	409.660	62.664	295.516	12.400	33.173
73.700	-1.616	8.864	1.000	65.149	461.948	68.543	295.038	12.400	36.769
73.800	-1.616	8.862	1.000	65.193	527.777	75.254	294.497	12.400	37.985
73.900	-1.614	8.863	1.000	65.199	557.048	82.471	293.973	12.400	38.000
74.000	-1.608	8.858	1.000	65.240	551.370	84.553	293.794	12.400	38.000
74.100	-1.583	8.842	1.000	65.245	554.582	84.940	293.743	12.400	37.205
74.200	-1.572	8.836	1.000	65.290	554.363	85.092	293.718	12.400	35.613
74.300	-1.569	8.835	1.000	65.296	545.399	85.167	293.699	12.400	30.993
74.400	-1.568	8.835	1.000	65.296	504.256	82.887	293.820	12.400	26.418
74.500	-1.569	8.835	1.000	65.279	412.788	73.671	294.495	12.400	23.224
74.600	-1.568	8.835	1.000	65.249	329.765	63.779	295.153	12.400	22.013
74.700	-1.565	8.831	1.000	65.246	273.352	56.282	295.820	12.400	21.609
74.800	-1.545	8.817	1.000	65.246	235.426	51.757	296.191	12.400	21.600
74.900	-1.528	8.807	1.000	65.205	218.129	50.891	296.318	12.400	21.600
75.000	-1.524	8.806	1.000	65.199	231.214	50.738	296.350	12.400	21.600
75.100	-1.521	8.804	1.000	65.181	226.914	50.715	296.357	12.400	21.600
75.200	-1.522	8.803	1.000	65.152	233.227	50.768	296.361	12.400	21.995
75.300	-1.522	8.803	1.000	65.149	236.189	50.788	296.347	12.400	22.000
75.400	-1.519	8.802	1.000	65.107	236.066	51.474	296.305	12.400	22.000
75.500	-1.503	8.789	1.000	65.102	236.085	51.722	296.299	12.400	22.395
75.600	-1.488	8.780	1.000	65.101	241.388	51.922	296.276	12.400	22.400
75.700	-1.483	8.775	1.000	65.084	245.559	53.157	296.199	12.400	22.400
75.800	-1.480	8.776	1.000	65.055	243.142	53.073	296.206	12.400	22.400
75.900	-1.481	8.774	1.000	65.051	254.343	53.446	296.175	12.400	23.581
76.000	-1.481	8.772	1.000	65.051	265.270	53.884	296.129	12.400	25.910
76.100	-1.481	8.773	1.000	65.051	284.406	55.087	295.989	12.400	26.389
76.200	-1.474	8.766	1.000	65.053	332.325	59.691	295.668	12.400	26.400
76.300	-1.457	8.752	1.000	65.053	347.259	62.307	295.491	12.400	26.400
76.400	-1.450	8.746	1.000	65.051	339.489	62.660	295.438	12.400	26.400
76.500	-1.447	8.745	1.000	65.053	339.224	62.299	295.460	12.400	26.400
76.600	-1.447	8.744	1.000	65.035	343.401	62.819	295.418	12.400	26.400
76.700	-1.446	8.744	1.000	65.049	337.861	62.637	295.429	12.400	26.400
76.800	-1.446	8.744	1.000	65.011	344.571	62.504	295.441	12.400	26.794
76.900	-1.440	8.737	1.000	65.012	340.447	62.575	295.441	12.400	26.800
77.000	-1.427	8.723	1.000	65.005	342.157	62.863	295.388	12.400	26.800
77.100	-1.421	8.718	1.000	65.012	352.396	63.560	295.346	12.400	26.800
77.200	-1.419	8.715	1.000	65.003	351.242	63.734	295.337	12.400	26.800
77.300	-1.418	8.712	1.000	65.012	339.914	63.128	295.363	12.400	27.198
77.400	-1.419	8.712	1.000	65.006	348.265	63.110	295.348	12.400	28.394
77.500	-1.419	8.712	1.000	65.013	370.822	64.417	295.250	12.400	29.195
77.600	-1.416	8.711	1.000	65.047	386.094	65.816	295.143	12.400	29.200
77.700	-1.406	8.695	1.000	65.051	404.185	68.086	294.981	12.400	29.200
77.800	-1.398	8.686	1.000	65.051	394.680	68.648	294.900	12.400	29.200
77.900	-1.394	8.684	1.000	65.052	397.304	68.514	294.913	12.400	29.200
78.000	-1.394	8.680	1.000	65.051	412.687	69.555	294.839	12.400	29.200
78.100	-1.395	8.680	1.000	65.053	405.791	69.254	294.847	12.400	29.200
78.200	-1.395	8.680	1.000	65.052	400.091	69.023	294.851	12.400	29.200
78.300	-1.391	8.679	1.000	65.052	398.586	68.890	294.862	12.400	29.200
78.400	-1.382	8.666	1.000	65.095	401.499	68.575	294.878	12.400	29.200
78.500	-1.372	8.655	1.000	65.074	402.053	68.970	294.827	12.400	28.803
78.600	-1.368	8.651	1.000	65.097	396.356	68.844	294.839	12.400	28.403
78.700	-1.369	8.650	1.000	65.102	388.926	68.219	294.873	12.400	28.400
78.800	-1.368	8.648	1.000	65.103	386.121	67.574	294.912	12.400	28.400
78.900	-1.368	8.651	1.000	65.100	379.663	67.697	294.899	12.400	28.400
79.000	-1.369	8.651	1.000	65.100	372.521	67.490	294.920	12.400	28.400
79.100	-1.360	8.642	1.000	65.102	377.002	66.992	294.951	12.400	28.005
79.200	-1.350	8.629	1.000	65.102	387.623	67.960	294.889	12.400	26.409
79.300	-1.345	8.623	1.000	65.102	370.121	65.290	295.061	12.400	24.411
79.400	-1.345	8.619	1.000	65.102	316.625	60.226	295.422	12.400	24.400
79.500	-1.344	8.616	1.000	65.057	296.210	59.707	295.467	12.400	24.400
79.600	-1.341	8.618	1.000	65.052	304.448	58.217	295.621	12.400	24.400
79.700	-1.344	8.619	1.000	65.051	302.287	57.896	295.650	12.400	24.400
79.800	-1.337	8.611	1.000	65.051	304.719	57.810	295.636	12.400	24.795
79.900	-1.327	8.597	1.000	65.052	303.285	58.825	295.563	12.400	24.800
80.000	-1.320	8.591	1.000	65.051	307.506	58.751	295.569	12.400	24.800
80.100	-1.318	8.590	1.000	65.034	298.493	58.640	295.595	12.400	24.800
80.200	-1.318	8.588	1.000	65.008	301.393	58.926	295.571	12.400	24.800
80.300	-1.318	8.589	1.000	65.005	308.826	59.285	295.536	12.400	26.389
80.400	-1.319	8.588	1.000	65.013	317.213	59.713	295.456	12.400	28.782
80.500	-1.318	8.587	1.000	65.032	360.067	63.386	295.231	12.400	28.800
80.600	-1.308	8.573	1.000	65.050	397.208	67.462	294.908	12.400	28.800
80.700	-1.299	8.564	1.000	65.053	392.213	68.012	294.850	12.400	29.196
80.800	-1.296	8.560	1.000	65.051	396.186	68.504	294.811	12.400	29.200
80.900	-1.296	8.559	1.000	65.051	404.344	68.969	294.754	12.400	29.200
81.000	-1.294	8.558	1.000	65.054	402.722	69.347	294.728	12.400	29.200
81.100	-1.294	8.558	1.000	65.052	405.181	69.503	294.695	12.400	29.200
81.200	-1.294	8.558	1.000	65.052	409.931	68.830	294.738	12.400	29.200
81.300	-1.283	8.546	1.000	65.053	407.222	68.411	294.772	12.400	28.803
81.400	-1.273	8.535	1.000	65.050	395.023	67.851	294.792	12.400	28.800
81.500	-1.271	8.531	1.000	65.098	387.053	68.413	294.749	12.400	28.800
81.600	-1.271	8.530	1.000	65.076	394.457	68.349	294.754	12.400	28.800
81.700	-1.269	8.529	1.000	65.099	391.771	67.640	294.790	12.400	28.405
81.800	-1.270	8.530	1.000	65.102	384.238	68.074	294.761	12.400	28.400
81.900	-1.268	8.530	1.000	65.103	383.607	67.351	294.815	12.400	28.400
82.000	-1.264	8.520	1.000	65.103	386.909	67.654	294.762	12.400	28.400
82.100	-1.249	8.507	1.000	65.103	392.314	68.594	294.707	12.400	28.400
82.200	-1.245	8.502	1.000	65.102	379.895	67.657	294.760	12.400	28.400
82.300	-1.244	8.498	1.000	65.102	380.838	67.753	294.759	12.400	28.004
82.400	-1.242	8.498	1.000	65.101	377.337	67.167	294.797	12.400	26.415
82.500	-1.244	8.498	1.000	65.102	362.613	66.267	294.804	12.400	24.822
82.600	-1.242	8.499	1.000	65.103	322.021	62.975	295.101	12.400	24.010
82.700	-1.239	8.492	1.000	65.055	302.021	59.577	295.351	12.400	23.605
82.800	-1.227	8.479	1.000	65.051	284.072	58.009	295.482	12.400	23.600
82.900	-1.221	8.473	1.000	65.052	275.143	56.227	295.613	12.400	23.600
83.000	-1.220	8.470	1.000	65.052	288.734	56.705	295.593	12.400	23.600
83.100	-1.218	8.469	1.000	65.052	279.677	56.416	295.617	12.400	23.600
83.200	-1.218	8.471	1.000	65.034	286.480	56.649	295.602	12.400	23.600
83.300	-1.220	8.469	1.000	65.004	288.433	56.537	295.614	12.400	23.600
83.400	-1.217	8.467	1.000	65.003	290.913	56.114	295.633	12.400	23.600
83.500	-1.204	8.450	1.000	65.003	281.774	56.075	295.649	12.400	23.600
83.600	-1.194	8.442	1.000	65.002	283.693	56.251	295.637	12.400	23.600
83.700	-1.193	8.440	1.000	64.956	283.624	56.288	295.642	12.400	23.600
83.800	-1.191	8.439	1.000	64.953	294.637	56.366	295.636	12.400	23.995
83.900	-1.191	8.439	1.000	64.954	292.768	56.441	295.614	12.400	24.397
84.000	-1.192	8.437	1.000	64.955	297.743	56.689	295.581	12.400	24.797
84.100	-1.191	8.437	1.000	64.953	297.836	57.929	295.503	12.400	25.590
84.200	-1.177	8.423	1.000	64.954	310.985	58.189	295.468	12.400	27.184
84.300	-1.165	8.415	1.000	64.954	336.763	60.240	295.294	12.400	27.991
84.400	-1.162	8.412	1.000	64.953	365.345	63.244	295.077	12.400	28.000
84.500	-1.163	8.411	1.000	64.953	375.738	65.710	294.885	12.400	28.000
84.600	-1.162	8.412	1.000	64.953	375.247	66.249	294.832	12.400	28.000
84.700	-1.161	8.412	1.000	64.954	372.687	65.998	294.855	12.400	28.000
84.800	-1.161	8.411	1.000	64.953	374.424	66.554	294.807	12.400	28.000
84.900	-1.154	8.402	1.000	64.953	372.605	65.820	294.834	12.400	28.000
85.000	-1.136	8.389	1.000	64.953	373.794	66.286	294.806	12.400	28.000
85.100	-1.132	8.386	1.000	64.953	382.704	66.805	294.760	12.400	28.000
85.200	-1.130	8.385	1.000	64.963	376.868	66.361	294.781	12.400	27.604
85.300	-1.129	8.382	1.000	64.954	375.185	66.766	294.758	12.400	27.205
85.400	-1.130	8.383	1.000	64.955	375.641	65.543	294.826	12.400	26.805
85.500	-1.130	8.384	1.000	64.953	360.031	64.355	294.902	12.400	26.410
85.600	-1.122	8.377	1.000	64.953	345.319	63.112	295.002	12.400	26.400
85.700	-1.104	8.364	1.000	64.953	344.184	62.731	295.042	12.400	26.400
85.800	-1.098	8.359	1.000	64.953	341.783	62.694	295.055	12.400	26.400
85.900	-1.094	8.356	1.000	64.953	343.382	62.610	295.054	12.400	26.400
86.000	-1.093	8.357	1.000	64.953	344.608	62.453	295.043	12.400	26.796
86.100	-1.092	8.356	1.000	64.953	342.597	62.914	295.005	12.400	27.196
86.200	-1.094	8.357	1.000	64.953	354.029	63.054	294.982	12.400	27.595
86.300	-1.091	8.354	1.000	64.953	365.108	64.157	294.904	12.400	27.995
86.400	-1.074	8.340	1.000	64.953	375.928	64.810	294.856	12.400	28.398
86.500	-1.062	8.333	1.000	64.954	376.155	65.969	294.747	12.400	28.400
86.600	-1.060	8.330	1.000	64.953	386.678	67.049	294.667	12.400	28.798
86.700	-1.058	8.330	1.000	65.000	392.878	67.640	294.616	12.400	29.193
86.800	-1.057	8.330	1.000	65.004	396.627	68.544	294.550	12.400	29.200
86.900	-1.056	8.328	1.000	65.003	403.620	69.405	294.480	12.400	29.200
87.000	-1.055	8.325	1.000	65.002	403.339	69.176	294.461	12.006	29.200
87.100	-1.038	8.314	1.000	65.002	403.092	69.179	294.456	12.000	28.808
87.200	-1.027	8.307	1.000	65.003	396.127	68.663	294.482	12.000	28.800
87.300	-1.019	8.304	1.000	65.002	393.971	68.216	294.527	12.000	28.800
87.400	-1.019	8.303	1.000	65.002	400.483	68.371	294.520	12.000	28.800
87.500	-1.018	8.302	1.000	65.047	402.981	68.451	294.494	12.000	28.800
87.600	-1.017	8.304	1.000	65.007	405.622	68.398	294.490	12.000	28.800
87.700	-1.019	8.304	1.000	65.047	400.202	68.130	294.511	12.000	28.403
87.800	-1.008	8.294	1.000	65.051	393.278	68.250	294.497	12.000	28.400
87.900	-0.984	8.282	1.000	65.051	392.431	68.149	294.498	12.000	28.004
88.000	-0.976	8.278	1.000	65.051	377.211	67.136	294.566	12.000	28.000
88.100	-0.975	8.277	1.000	65.051	376.385	65.730	294.655	12.000	28.000
88.200	-0.975	8.276	1.000	65.052	379.294	66.312	294.620	12.000	28.000
88.300	-0.973	8.275	1.000	65.053	377.652	66.452	294.607	12.000	28.000
88.400	-0.972	8.274	1.000	65.053	368.964	66.528	294.603	12.000	28.000
88.500	-0.964	8.269	1.000	65.051	374.442	65.832	294.649	12.000	28.000
88.600	-0.938	8.256	1.000	65.051	379.560	66.020	294.631	12.000	28.000
88.700	-0.930	8.251	1.000	65.051	385.017	66.019	294.609	12.000	28.000
88.800	-0.924	8.249	1.000	65.053	373.280	66.489	294.583	12.000	28.000
88.900	-0.924	8.250	1.000	65.051	383.656	66.627	294.570	12.000	28.000
89.000	-0.925	8.249	1.000	65.052	383.509	66.802	294.535	12.000	28.000
89.100	-0.925	8.249	1.000	65.051	377.341	66.407	294.579	12.000	28.000
89.200	-0.921	8.246	1.000	65.051	383.978	66.224	294.587	12.000	28.000
89.300	-0.898	8.234	1.000	65.052	376.558	66.240	294.574	12.000	28.000
89.400	-0.883	8.226	1.000	65.051	368.849	66.533	294.549	12.000	28.000
89.500	-0.878	8.222	1.000	65.051	377.152	66.299	294.558	12.000	28.000
89.600	-0.876	8.221	1.000	65.097	376.259	66.206	294.567	12.000	28.000
89.700	-0.876	8.220	1.000	65.056	366.135	65.761	294.581	12.000	28.000
89.800	-0.874	8.220	1.000	65.098	368.396	65.730	294.590	12.000	28.000
89.900	-0.874	8.219	1.000	65.055	381.503	66.016	294.578	12.000	28.000
90.000	-0.851	8.209	1.000	65.098	375.806	66.051	294.572	12.000	28.000
90.100	-0.836	8.202	1.000	65.102	379.472	65.859	294.569	12.000	28.000
90.200	-0.829	8.199	1.000	65.101	379.598	66.483	294.529	12.000	28.000
90.300	-0.827	8.197	1.000	65.102	372.734	66.552	294.515	12.000	28.000
90.400	-0.826	8.197	1.000	65.103	375.568	66.579	294.504	12.000	28.000
90.500	-0.825	8.199	1.000	65.103	369.778	66.408	294.505	12.000	28.000
90.600	-0.826	8.199	1.000	65.101	379.427	66.495	294.483	12.000	28.000
90.700	-0.812	8.191	1.000	65.102	381.143	66.928	294.449	12.000	28.000
90.800	-0.790	8.179	1.000	65.101	382.092	66.537	294.473	12.000	28.000
90.900	-0.781	8.174	1.000	65.101	378.452	66.852	294.456	12.000	27.605
91.000	-0.777	8.174	1.000	65.102	379.526	66.250	294.503	12.000	25.610
91.100	-0.778	8.172	1.000	65.102	353.971	65.255	294.556	12.000	24.009
91.200	-0.777	8.171	1.000	65.102	319.223	61.799	294.801	12.000	23.227
91.300	-0.777	8.173	1.000	65.056	283.453	57.520	295.146	12.000	23.200
91.400	-0.767	8.167	1.000	65.053	274.952	56.267	295.263	12.000	23.596
91.500	-0.743	8.153	1.000	65.051	276.048	55.840	295.303	12.000	23.996
91.600	-0.735	8.148	1.000	65.052	280.820	56.268	295.274	12.000	24.395
91.700	-0.732	8.147	1.000	65.051	290.970	57.416	295.186	12.000	24.795
91.800	-0.730	8.147	1.000	65.025	299.703	58.225	295.112	12.000	24.800
91.900	-0.728	8.146	1.000	65.031	305.700	59.061	295.042	12.000	24.800
92.000	-0.730	8.147	1.000	65.005	307.235	58.898	295.043	12.000	24.800
92.100	-0.727	8.145	1.000	65.001	308.651	58.837	295.052	12.000	24.800
92.200	-0.706	8.133	1.000	65.002	308.970	58.899	295.043	12.000	24.800
92.300	-0.692	8.125	1.000	65.003	308.130	59.345	295.009	12.000	24.800
92.400	-0.687	8.122	1.000	65.002	305.671	59.508	294.996	12.000	25.196
92.500	-0.686	8.122	1.000	65.002	314.076	59.448	294.998	12.000	25.200
92.600	-0.686	8.122	1.000	64.985	315.880	59.832	294.970	12.000	25.200
92.700	-0.685	8.120	1.000	65.000	314.796	60.118	294.945	12.000	25.200
92.800	-0.683	8.119	1.000	64.957	312.681	59.756	294.966	12.000	25.200
92.900	-0.665	8.108	1.000	64.953	313.055	59.895	294.959	12.000	25.200
93.000	-0.652	8.100	1.000	64.954	319.050	60.074	294.956	12.000	25.200
93.100	-0.647	8.097	1.000	64.953	317.718	59.809	294.956	12.000	25.200
93.200	-0.645	8.096	1.000	64.953	317.238	60.483	294.912	12.000	25.200
93.300	-0.644	8.096	1.000	64.953	323.142	60.268	294.914	12.000	25.200
93.400	-0.645	8.096	1.000	64.953	317.417	59.859	294.946	12.000	24.804
93.500	-0.644	8.096	1.000	64.953	307.981	59.391	294.968	12.000	24.800
93.600	-0.634	8.088	1.000	64.937	320.061	59.059	294.990	12.000	24.800
93.700	-0.614	8.074	1.000	64.952	313.571	59.006	294.995	12.000	24.800
93.800	-0.609	8.070	1.000	64.910	314.397	59.241	294.979	12.000	25.198
93.900	-0.607	8.070	1.000	64.904	313.368	59.218	294.975	12.000	25.995
94.000	-0.605	8.068	1.000	64.905	317.632	60.122	294.916	12.000	26.397
94.100	-0.605	8.069	1.000	64.904	336.842	61.276	294.823	12.000	26.797
94.200	-0.605	8.068	1.000	64.905	344.346	61.538	294.777	12.000	26.800
94.300	-0.599	8.063	1.000	64.904	351.416	63.020	294.670	12.000	26.800
94.400	-0.580	8.051	1.000	64.905	358.356	63.049	294.658	12.000	26.800
94.500	-0.573	8.045	1.000	64.905	357.041	63.876	294.593	12.000	26.800
94.600	-0.572	8.044	1.000	64.905	353.306	63.550	294.613	12.000	26.800
94.700	-0.570	8.044	1.000	64.905	351.917	63.387	294.619	12.000	26.800
94.800	-0.570	8.042	1.000	64.905	353.655	63.277	294.625	12.000	26.800
94.900	-0.570	8.042	1.000	64.905	349.887	63.143	294.614	12.000	26.800
95.000	-0.568	8.040	1.000	64.904	354.311	63.544	294.577	12.000	26.800
95.100	-0.553	8.029	1.000	64.907	357.533	63.244	294.602	12.000	26.800
95.200	-0.545	8.022	1.000	64.903	352.620	63.598	294.577	12.000	26.800
95.300	-0.541	8.019	1.000	64.902	352.242	62.984	294.599	12.000	26.800
95.400	-0.540	8.017	1.000	64.902	351.525	63.556	294.561	12.000	26.800
95.500	-0.540	8.017	1.000	64.905	349.664	63.845	294.545	12.000	26.800
95.600	-0.539	8.017	1.000	64.905	349.908	63.276	294.569	12.000	26.800
95.700	-0.538	8.014	1.000	64.905	355.134	63.835	294.539	12.000	26.800
95.800	-0.530	8.003	1.000	64.904	354.124	63.430	294.556	12.000	26.800
95.900	-0.523	7.993	1.000	64.906	354.306	63.463	294.546	12.000	26.800
96.000	-0.519	7.991	1.000	64.906	355.798	63.651	294.532	12.000	26.800
96.100	-0.519	7.989	1.000	64.906	356.253	63.385	294.526	12.000	26.800
96.200	-0.519	7.989	1.000	64.906	357.255	63.997	294.486	12.000	26.800
96.300	-0.519	7.990	1.000	64.904	367.663	64.116	294.478	12.000	26.800
96.400	-0.518	7.990	1.000	64.905	364.369	63.428	294.524	12.000	26.800
96.500	-0.514	7.982	1.000	64.905	359.276	63.781	294.501	12.000	26.800
96.600	-0.502	7.969	1.000	64.905	361.391	63.737	294.490	12.000	26.800
96.700	-0.500	7.964	1.000	64.906	357.976	63.653	294.490	12.000	26.800
96.800	-0.498	7.963	1.000	64.905	356.727	63.561	294.490	12.000	26.800
96.900	-0.497	7.963	1.000	64.905	366.354	63.324	294.502	12.000	26.800
97.000	-0.498	7.962	1.000	64.906	367.056	63.935	294.464	12.000	26.800
97.100	-0.498	7.961	1.000	64.905	366.300	63.932	294.454	12.000	26.800
97.200	-0.494	7.956	1.000	64.905	367.226	63.695	294.464	12.000	26.800
97.300	-0.484	7.943	1.000	64.905	369.737	63.937	294.443	12.000	26.800
97.400	-0.480	7.937	1.000	64.905	370.445	64.057	294.424	12.000	27.189
97.500	-0.478	7.934	1.000	64.904	372.978	64.067	294.423	12.000	27.995
97.600	-0.478	7.935	1.000	64.904	383.161	64.511	294.380	12.000	28.795
97.700	-0.478	7.934	1.000	64.905	396.073	66.116	294.243	12.000	28.800
97.800	-0.478	7.934	1.000	64.905	392.994	66.354	294.227	12.000	28.800
97.900	-0.476	7.932	1.000	64.907	393.071	66.197	294.237	12.000	28.800
98.000	-0.470	7.920	1.000	64.905	389.103	66.290	294.220	12.000	28.800
98.100	-0.463	7.912	1.000	64.922	393.438	66.148	294.215	12.000	28.800
98.200	-0.462	7.909	1.000	64.908	397.285	66.864	294.156	12.000	28.800
98.300	-0.462	7.908	1.000	64.949	393.312	66.035	294.205	12.000	28.800
98.400	-0.463	7.910	1.000	64.927	391.854	65.692	294.226	12.000	28.800
98.500	-0.462	7.908	1.000	64.951	392.344	66.276	294.186	12.000	28.800
98.600	-0.461	7.908	1.000	64.953	382.811	66.297	294.163	12.000	28.800
98.700	-0.455	7.895	1.000	64.953	380.109	65.210	294.245	12.000	28.800
98.800	-0.448	7.886	1.000	64.953	394.615	66.089	294.195	12.000	28.800
98.900	-0.447	7.883	1.000	64.953	377.304	66.112	294.191	12.000	28.800
99.000	-0.447	7.882	1.000	64.953	363.595	64.894	294.252	12.000	28.800
99.100	-0.446	7.882	1.000	64.953	366.826	63.750	294.345	12.000	28.800
99.200	-0.445	7.882	1.000	64.953	369.373	63.375	294.373	12.000	28.800
99.300	-0.445	7.881	1.000	64.953	368.189	63.553	294.365	12.000	28.800
99.400	-0.443	7.873	1.000	64.954	365.235	63.463	294.362	12.000	28.800
99.500	-0.436	7.860	1.000	64.953	367.346	63.971	294.334	12.000	28.800
99.600	-0.434	7.855	1.000	64.953	363.112	63.569	294.349	12.000	28.800
99.700	-0.431	7.853	1.000	64.953	359.829	63.331	294.364	12.000	28.800
99.800	-0.431	7.854	1.000	64.937	364.517	63.736	294.337	12.000	28.800
99.900	-0.430	7.853	1.000	64.951	365.073	63.578	294.330	12.000	28.800
100.000	-0.431	7.853	1.000	64.954	359.513	63.651	294.317	12.000	28.800
100.100	-0.428	7.846	1.000	64.953	360.097	63.426	294.329	12.000	28.800
100.200	-0.420	7.834	1.000	64.937	363.855	63.889	294.307	12.000	28.800
100.300	-0.415	7.830	1.000	64.952	361.623	63.736	294.305	12.000	28.800
100.400	-0.416	7.827	1.000	64.936	363.891	63.622	294.294	12.000	28.800
100.500	-0.415	7.828	1.000	64.952	365.445	63.647	294.280	12.000	28.800
100.600	-0.413	7.826	1.000	64.936	362.660	63.914	294.268	12.000	28.800
100.700	-0.414	7.828	1.000	64.951	366.400	63.787	294.271	12.000	28.800
100.800	-0.413	7.825	1.000	64.937	368.676	63.875	294.262	12.000	28.800
100.900	-0.405	7.815	1.000	64.918	366.075	63.327	294.294	12.000	28.800
101.000	-0.399	7.806	1.000	64.932	361.404	63.254	294.299	12.000	28.800
101.100	-0.398	7.803	1.000	64.918	366.514	63.400	294.282	12.000	28.800
101.200	-0.398	7.801	1.000	64.933	373.470	63.650	294.254	12.000	28.800
101.300	-0.397	7.803	1.000	64.917	371.729	63.970	294.218	12.000	28.800
101.400	-0.398	7.800	1.000	64.933	359.365	63.538	294.251	12.000	28.800
101.500	-0.395	7.800	1.000	64.917	366.528	63.899	294.230	12.000	28.800
101.600	-0.390	7.788	1.000	64.932	368.098	63.631	294.245	12.000	28.800
101.700	-0.385	7.779	1.000	64.919	367.918	63.647	294.246	12.000	28.800
101.800	-0.382	7.776	1.000	64.907	367.760	64.202	294.205	12.000	28.800
101.900	-0.383	7.774	1.000	64.888	307.072	59.705	294.457	12.000	28.800
102.000	-0.382	7.773	1.000	64.859	200.539	50.565	295.168	12.000	28.800
102.100	-0.382	7.774	1.000	64.814	140.925	42.182	295.815	12.000	28.800
102.200	-0.383	7.775	1.000	64.764	70.133	35.016	296.391	12.000	28.800
102.300	-0.378	7.768	1.000	64.699	13.644	27.975	296.946	12.000	28.800
102.400	-0.371	7.757	1.000	64.646	-49.204	21.237	297.496	12.000	28.800
102.500	-0.369	7.752	1.000	64.557	-96.232	16.059	297.936	12.000	28.800
102.600	-0.367	7.750	1.000	64.499	-117.338	14.323	298.072	12.000	28.800
102.700	-0.367	7.748	1.000	64.407	-150.666	11.883	298.284	12.000	28.800
102.800	-0.368	7.747	1.000	64.356	-168.322	8.910	298.542	12.000	28.800
102.900	-0.366	7.747	1.000	64.263	-181.700	6.723	298.759	12.000	28.800
103.000	-0.365	7.743	1.000	64.209	-226.847	4.300	298.944	12.000	28.800
103.100	-0.354	7.731	1.000	64.117	-250.577	1.427	299.222	12.000	28.800
103.200	-0.353	7.727	1.000	64.034	-242.207	-0.280	299.395	12.000	37.124
103.300	-0.352	7.724	1.000	63.963	-247.478	-0.232	299.419	12.000	50.681
103.400	-0.349	7.723	1.000	63.867	-255.342	-0.603	299.470	12.000	52.387
103.500	-0.350	7.722	1.000	63.788	-248.910	-0.647	299.507	12.000	52.400
103.600	-0.349	7.724	1.000	63.719	-242.291	-0.618	299.532	12.000	70.429
103.700	-0.349	7.721	1.000	63.623	-251.296	-0.877	299.570	12.000	99.876
103.800	-0.344	7.708	1.000	63.569	-252.924	-0.865	299.583	12.000	100.000
103.900	-0.339	7.703	1.000	63.479	-244.443	-0.550	299.591	12.000	100.000
104.000	-0.335	7.700	1.000	63.425	-248.368	-0.652	299.600	12.000	100.000
104.100	-0.335	7.698	1.000	63.332	-243.878	-0.608	299.610	12.000	100.000
104.200	-0.335	7.698	1.000	63.235	-245.176	-0.340	299.614	12.000	100.000
104.300	-0.336	7.698	1.000	63.154	-251.429	-0.794	299.668	12.000	100.000
104.400	-0.334	7.695	1.000	63.084	-246.210	-0.626	299.678	12.000	100.000
104.500	-0.328	7.685	1.000	63.007	-249.389	-0.581	299.683	12.000	100.000
104.600	-0.324	7.678	1.000	62.938	-250.921	-0.681	299.698	12.000	100.000
104.700	-0.320	7.674	1.000	62.843	-246.188	-0.715	299.719	12.000	100.000
104.800	-0.320	7.672	1.000	62.790	-246.559	-0.752	299.740	12.000	100.000
104.900	-0.320	7.672	1.000	62.695	-252.570	-0.811	299.767	12.000	100.000
105.000	-0.320	7.672	1.000	62.643	-257.282	-1.092	299.801	12.000	100.000
105.100	-0.320	7.672	1.000	62.549	-247.485	-0.646	299.782	12.000	100.000
105.200	-0.319	7.663	1.000	62.446	-249.371	-0.591	299.788	12.000	100.000
105.300	-0.312	7.654	1.000	62.391	-245.345	-0.589	299.799	12.000	100.000
105.400	-0.310	7.649	1.000	62.298	-246.103	-0.569	299.808	12.000	100.000
105.500	-0.310	7.648	1.000	62.245	-246.349	-0.346	299.798	12.000	100.000
105.600	-0.310	7.646	1.000	62.153	-251.281	-0.370	299.832	12.000	100.000
105.700	-0.310	7.646	1.000	62.100	-248.909	-0.519	299.869	12.000	100.000
105.800	-0.310	7.647	1.000	62.007	-245.711	-0.297	299.856	12.000	100.000
105.900	-0.307	7.642	1.000	61.928	-248.048	-0.388	299.860	12.000	100.000
106.000	-0.301	7.630	1.000	61.859	-245.059	-0.329	299.871	12.000	100.000
106.100	-0.299	7.625	1.000	61.765	-242.111	-0.266	299.884	12.000	100.000
106.200	-0.297	7.623	1.000	61.709	-246.604	-0.237	299.895	12.000	100.000
106.300	-0.296	7.622	1.000	61.618	-241.239	-0.239	299.908	12.000	100.000
106.400	-0.297	7.622	1.000	61.565	-245.117	-0.083	299.921	12.000	100.000
106.500	-0.297	7.622	1.000	61.489	-253.108	-0.643	299.953	12.000	100.000
106.600	-0.296	7.621	1.000	61.420	-249.164	-0.623	299.969	12.000	100.000
106.700	-0.285	7.611	1.000	61.342	-251.965	-0.460	299.971	12.000	100.000
106.800	-0.281	7.604	1.000	61.273	-260.721	-0.421	299.974	12.000	100.000
106.900	-0.281	7.600	1.000	61.179	-264.441	-0.377	299.981	12.000	100.000
107.000	-0.280	7.599	1.000	61.099	-260.049	-0.861	300.028	12.000	100.000
107.100	-0.280	7.597	1.000	61.029	-260.836	-0.370	300.007	12.000	100.000
107.200	-0.281	7.599	1.000	60.952	-256.794	-0.565	300.035	12.000	100.000
107.300	-0.279	7.597	1.000	60.882	-256.181	-0.369	300.034	12.000	100.000
107.400	-0.272	7.587	1.000	60.805	-259.787	-0.754	300.067	12.000	100.000
107.500	-0.264	7.578	1.000	60.736	-256.739	-0.431	300.065	12.000	100.000
107.600	-0.262	7.575	1.000	60.659	-250.685	-0.611	300.075	12.000	100.000
107.700	-0.262	7.574	1.000	60.589	-255.199	-0.407	300.087	12.000	100.000
107.800	-0.261	7.575	1.000	60.512	-261.486	-0.939	300.124	12.000	100.000
107.900	-0.262	7.573	1.000	60.442	-249.172	-0.963	300.149	12.000	100.000
108.000	-0.261	7.572	1.000	60.350	-250.715	-0.429	300.130	12.000	100.000
108.100	-0.256	7.567	1.000	60.293	-249.810	-0.251	300.118	12.000	100.000
108.200	-0.245	7.558	1.000	60.202	-255.491	-0.681	300.149	12.000	100.000
108.300	-0.242	7.555	1.000	60.148	-253.250	-1.143	300.196	12.000	100.000
108.400	-0.241	7.552	1.000	60.074	-249.437	-0.702	300.180	12.000	100.000
108.500	-0.239	7.552	1.000	60.004	-249.680	-0.892	300.188	12.000	100.000
108.600	-0.240	7.552	1.000	59.928	-249.038	-0.879	300.226	12.000	100.000
108.700	-0.240	7.552	1.000	59.858	-243.027	-1.189	300.246	12.000	100.000
108.800	-0.234	7.548	1.000	59.763	-243.983	-0.302	300.208	12.000	55.754
108.900	-0.225	7.536	1.000	59.708	-242.900	-0.335	300.215	12.000	0.642
109.000	-0.221	7.532	1.000	59.614	-253.577	-0.908	300.235	12.000	0.000
109.100	-0.219	7.529	1.000	59.537	-278.803	-2.272	300.339	12.000	0.000
109.200	-0.218	7.530	1.000	59.465	-287.137	-3.822	300.486	12.000	0.000
109.300	-0.219	7.529	1.000	59.414	-268.026	-3.883	300.483	12.000	0.000
109.400	-0.217	7.529	1.000	59.323	-254.344	-1.709	300.373	12.000	0.000
109.500	-0.216	7.527	1.000	59.268	-260.135	-1.944	300.359	12.000	0.000
109.600	-0.208	7.517	1.000	59.177	-249.342	-0.802	300.298	12.000	0.000
109.700	-0.202	7.510	1.000	59.097	-260.744	-1.558	300.388	12.000	0.000
109.800	-0.198	7.506	1.000	59.027	-258.389	-1.329	300.375	12.000	0.000
109.900	-0.198	7.505	1.000	58.952	-254.551	-1.654	300.386	12.000	0.000
110.000	-0.199	7.506	1.000	58.882	-262.417	-1.582	300.398	12.000	0.000
110.100	-0.199	7.506	1.000	58.804	-264.041	-1.613	300.409	12.000	0.000
110.200	-0.197	7.505	1.000	58.735	-260.647	-1.693	300.432	12.000	0.000
110.300	-0.188	7.493	1.000	58.666	-261.175	-1.319	300.417	12.000	0.000
110.400	-0.181	7.485	1.000	58.588	-278.649	-2.257	300.482	12.000	0.000
110.500	-0.178	7.482	1.000	58.496	-292.464	-3.791	300.585	12.000	0.000
110.600	-0.179	7.481	1.000	58.442	-279.478	-4.296	300.664	12.000	0.000
110.700	-0.177	7.480	1.000	58.349	-291.766	-3.722	300.639	12.000	0.000
110.800	-0.177	7.483	1.000	58.235	-333.648	-6.009	300.805	12.000	0.000
110.900	-0.177	7.481	1.000	58.108	-486.898	-18.801	301.740	12.000	0.000
111.000	-0.173	7.475	1.000	57.965	-611.119	-20.611	301.794	12.000	0.000
111.100	-0.163	7.464	1.000	57.845	-647.502	-28.962	302.512	12.000	0.000
111.200	-0.161	7.462	1.000	57.697	-712.237	-33.553	302.895	12.000	0.000
111.300	-0.161	7.460	1.000	57.525	-766.476	-37.867	303.310	12.000	0.000
111.400	-0.159	7.461	1.000	57.378	-819.583	-43.821	303.747	12.000	0.000
111.500	-0.159	7.458	1.000	57.211	-872.000	-48.930	304.157	12.000	0.000
111.600	-0.158	7.459	1.000	57.064	-909.857	-54.002	304.603	12.000	0.000
111.700	-0.156	7.453	1.000	56.873	-910.446	-55.166	304.756	12.000	0.000
111.800	-0.151	7.443	1.000	56.721	-945.814	-56.990	304.886	12.000	0.000
111.900	-0.149	7.440	1.000	56.537	-1026.363	-61.805	305.293	12.000	0.000
112.000	-0.149	7.437	1.000	56.354	-1052.444	-65.049	305.607	12.000	0.000
112.100	-0.147	7.437	1.000	56.189	-1044.627	-65.677	305.688	12.000	0.000
112.200	-0.147	7.438	1.000	55.995	-1065.341	-66.134	305.737	12.000	0.000
112.300	-0.148	7.437	1.000	55.803	-1089.816	-67.872	305.915	12.000	0.000
112.400	-0.148	7.435	1.000	55.650	-1104.628	-70.134	306.088	12.000	0.000
112.500	-0.145	7.424	1.000	55.459	-1124.930	-70.416	306.202	12.000	0.000
112.600	-0.144	7.416	1.000	55.268	-1142.289	-70.669	306.245	12.000	0.000
112.700	-0.142	7.414	1.000	55.072	-1129.673	-70.914	306.303	12.000	0.000
112.800	-0.142	7.413	1.000	54.921	-1123.618	-70.320	306.290	12.000	0.000
112.900	-0.144	7.413	1.000	54.730	-1130.488	-69.852	306.286	12.000	0.000
113.000	-0.144	7.415	1.000	54.552	-1124.592	-69.955	306.330	12.000	0.000
113.100	-0.143	7.412	1.000	54.383	-1116.615	-69.976	306.329	12.000	0.000
113.200	-0.141	7.403	1.000	54.191	-1118.090	-69.425	306.318	12.000	0.000
113.300	-0.139	7.395	1.000	54.014	-1120.288	-69.433	306.364	12.000	0.000
113.400	-0.139	7.392	1.000	53.849	-1123.597	-69.476	306.389	12.000	0.000
113.500	-0.139	7.393	1.000	53.656	-1117.871	-68.871	306.369	12.000	0.000
113.600	-0.139	7.392	1.000	53.458	-1119.982	-68.549	306.371	12.000	0.000
113.700	-0.137	7.390	1.000	53.281	-1129.130	-68.795	306.418	12.000	0.000
113.800	-0.140	7.392	1.000	53.114	-1144.107	-69.124	306.476	12.000	0.000
113.900	-0.139	7.385	1.000	52.924	-1148.376	-69.195	306.520	12.000	0.000
114.000	-0.139	7.375	1.000	52.725	-1147.555	-69.444	306.555	12.000	0.000
114.100	-0.139	7.370	1.000	52.548	-1155.984	-69.341	306.565	12.000	0.000
114.200	-0.138	7.369	1.000	52.383	-1177.154	-70.233	306.656	12.000	0.000
114.300	-0.139	7.370	1.000	52.192	-1190.278	-71.422	306.754	12.000	0.000
114.400	-0.137	7.370	1.000	51.996	-1181.535	-71.140	306.774	12.000	0.000
114.500	-0.138	7.367	1.000	51.801	-1184.082	-70.927	306.793	12.000	0.000
114.600	-0.139	7.364	1.000	51.605	-1202.480	-71.619	306.859	12.000	0.000
114.700	-0.139	7.353	1.000	51.409	-1206.453	-71.425	306.875	12.000	0.000
114.800	-0.141	7.349	1.000	51.214	-1201.425	-71.496	306.911	12.000	0.000
114.900	-0.141	7.346	1.000	51.060	-1206.197	-70.974	306.915	12.000	0.000
115.000	-0.141	7.347	1.000	50.871	-1210.366	-70.753	306.893	12.000	0.000
115.100	-0.141	7.347	1.000	50.677	-1207.077	-70.749	306.915	12.000	0.000
115.200	-0.143	7.347	1.000	50.484	-1223.275	-70.853	306.933	12.000	0.000
115.300	-0.141	7.345	1.000	50.285	-1222.436	-71.387	306.999	12.000	0.000
115.400	-0.146	7.335	1.000	50.093	-1220.937	-70.863	307.007	12.000	0.000
115.500	-0.148	7.326	1.000	49.888	-1226.848	-70.698	307.008	12.000	0.000
115.600	-0.148	7.325	1.000	49.687	-1251.205	-71.276	307.059	12.000	0.000
115.700	-0.150	7.325	1.000	49.494	-1265.188	-72.299	307.172	12.000	0.000
115.800	-0.150	7.324	1.000	49.299	-1279.428	-72.876	307.210	12.000	0.000
115.900	-0.151	7.324	1.000	49.087	-1343.202	-75.412	307.431	12.000	0.000
116.000	-0.150	7.322	1.000	48.866	-1360.197	-77.729	307.658	12.000	0.000
116.100	-0.154	7.313	1.000	48.668	-1370.247	-78.458	307.745	12.000	0.000
116.200	-0.156	7.306	1.000	48.456	-1379.877	-78.824	307.795	12.000	0.000
116.300	-0.158	7.304	1.000	48.231	-1400.672	-79.604	307.866	12.000	0.000
116.400	-0.158	7.303	1.000	48.030	-1424.187	-80.640	307.962	12.000	0.000
116.500	-0.157	7.301	1.000	47.793	-1420.000	-80.987	308.016	12.000	0.000
116.600	-0.158	7.302	1.000	47.594	-1436.317	-81.032	308.070	12.000	0.000
116.700	-0.158	7.301	1.000	47.383	-1437.670	-81.400	308.117	12.000	0.000
116.800	-0.161	7.295	1.000	47.155	-1449.284	-81.389	308.146	12.000	0.000
116.900	-0.166	7.285	1.000	46.946	-1467.962	-82.505	308.240	12.000	0.000
117.000	-0.170	7.281	1.000	46.717	-1488.464	-83.115	308.320	12.000	0.000
117.100	-0.170	7.280	1.000	46.473	-1495.616	-83.472	308.374	12.000	0.000
117.200	-0.171	7.279	1.000	46.259	-1519.007	-84.690	308.488	12.000	0.000
117.300	-0.170	7.279	1.000	46.034	-1527.046	-84.861	308.506	12.000	0.000
117.400	-0.170	7.279	1.000	45.789	-1525.227	-84.582	308.530	12.000	0.000
117.500	-0.171	7.279	1.000	45.593	-1539.630	-84.592	308.568	12.000	0.000
117.600	-0.169	7.279	1.000	45.349	-1525.706	-84.382	308.561	12.000	0.000
117.700	-0.171	7.278	1.000	45.102	-1536.457	-83.951	308.564	12.000	0.000
117.800	-0.171	7.279	1.000	44.903	-1535.868	-83.807	308.564	12.000	0.000
117.900	-0.171	7.278	1.000	44.666	-1549.740	-83.510	308.564	12.000	0.000
118.000	-0.180	7.270	1.000	44.422	-1555.208	-83.706	308.616	12.000	0.000
118.100	-0.189	7.262	1.000	44.202	-1568.736	-84.024	308.662	12.000	0.000
118.200	-0.192	7.258	1.000	43.958	-1567.742	-83.939	308.669	12.000	0.000
118.300	-0.193	7.256	1.000	43.716	-1608.549	-84.520	308.759	12.000	0.000
118.400	-0.194	7.255	1.000	43.471	-1647.295	-86.390	308.912	12.000	0.000
118.500	-0.194	7.255	1.000	43.229	-1664.648	-87.696	309.048	12.000	0.000
118.600	-0.194	7.256	1.000	43.005	-1657.263	-87.511	309.065	12.000	0.000
118.700	-0.199	7.252	1.000	42.759	-1658.325	-87.023	309.048	12.000	0.000
118.800	-0.214	7.240	1.000	42.516	-1648.126	-86.150	309.015	12.000	0.000
118.900	-0.221	7.236	1.000	42.296	-1654.034	-85.636	309.007	12.000	0.000
119.000	-0.223	7.234	1.000	42.055	-1645.241	-84.847	308.970	12.000	0.000
119.100	-0.223	7.234	1.000	41.831	-1624.768	-83.442	308.892	12.000	0.000
119.200	-0.223	7.234	1.000	41.587	-1602.117	-81.757	308.777	12.000	0.000
119.300	-0.223	7.235	1.000	41.370	-1569.917	-79.180	308.602	12.000	0.000
119.400	-0.229	7.230	1.000	41.150	-1543.771	-78.764	308.556	12.000	0.000
119.500	-0.249	7.219	1.000	40.904	-1595.630	-78.091	308.529	12.000	0.000
119.600	-0.255	7.214	1.000	40.661	-1656.652	-79.971	308.664	12.000	0.000
119.700	-0.261	7.212	1.000	40.414	-1701.805	-82.627	308.930	12.000	0.000
119.800	-0.260	7.210	1.000	40.173	-1676.997	-83.177	309.001	12.000	0.000
119.900	-0.262	7.211	1.000	39.954	-1696.390	-82.689	308.990	12.000	0.000
120.000	-0.261	7.210	1.000	39.712	-1682.307	-82.308	308.981	12.000	0.000
120.100	-0.262	7.208	1.000	39.470	-1698.305	-81.741	308.963	12.000	0.000
120.200	-0.281	7.202	1.000	39.226	-1687.455	-81.410	308.943	12.000	0.000
120.300	-0.296	7.190	1.000	38.978	-1693.322	-80.986	308.930	12.000	0.000
120.400	-0.301	7.189	1.000	38.742	-1680.281	-80.443	308.912	12.000	0.000
120.500	-0.305	7.187	1.000	38.512	-1679.258	-79.547	308.865	12.000	0.000
120.600	-0.306	7.187	1.000	38.267	-1680.367	-79.169	308.852	12.000	0.000
120.700	-0.306	7.187	1.000	38.023	-1676.764	-78.777	308.851	12.000	0.000
120.800	-0.307	7.187	1.000	37.780	-1685.051	-78.364	308.838	12.000	0.000
120.900	-0.329	7.177	1.000	37.531	-1680.085	-77.644	308.813	12.000	0.000
121.000	-0.350	7.170	1.000	37.309	-1691.978	-77.232	308.809	12.000	0.000
121.100	-0.355	7.165	1.000	37.071	-1674.851	-76.590	308.752	12.000	0.000
121.200	-0.357	7.164	1.000	36.827	-1680.844	-76.045	308.749	12.000	0.000
121.300	-0.359	7.163	1.000	36.603	-1669.237	-75.419	308.703	12.000	0.000
121.400	-0.358	7.163	1.000	36.358	-1678.520	-75.152	308.713	12.000	0.000
121.500	-0.357	7.163	1.000	36.119	-1678.644	-75.111	308.709	12.000	0.000
121.600	-0.368	7.159	1.000	35.869	-1671.755	-74.509	308.681	12.000	0.000
121.700	-0.399	7.149	1.000	35.651	-1678.777	-74.097	308.660	12.000	0.000
121.800	-0.410	7.144	1.000	35.413	-1667.842	-73.570	308.644	12.000	0.000
121.900	-0.414	7.143	1.000	35.177	-1676.356	-72.993	308.622	12.000	0.000
122.000	-0.416	7.143	1.000	34.924	-1669.526	-72.452	308.589	12.000	0.000
122.100	-0.417	7.143	1.000	34.702	-1671.522	-71.829	308.557	12.000	0.000
122.200	-0.417	7.143	1.000	34.456	-1676.614	-71.327	308.542	12.000	0.000
122.300	-0.424	7.139	1.000	34.214	-1665.631	-70.860	308.541	12.000	0.000
122.400	-0.460	7.128	1.000	33.995	-1675.495	-70.350	308.514	12.000	0.000
122.500	-0.480	7.121	1.000	33.754	-1660.665	-69.877	308.497	12.000	0.000
122.600	-0.482	7.118	1.000	33.528	-1667.782	-69.224	308.448	12.000	0.000
122.700	-0.484	7.119	1.000	33.288	-1672.573	-68.726	308.437	12.000	0.000
122.800	-0.486	7.118	1.000	33.043	-1663.462	-68.218	308.420	12.000	0.000
122.900	-0.486	7.117	1.000	32.824	-1671.771	-67.657	308.380	12.000	0.000
123.000	-0.487	7.117	1.000	32.584	-1663.688	-67.224	308.361	12.000	0.000
123.100	-0.518	7.108	1.000	32.354	-1668.373	-66.755	308.349	12.000	0.000
123.200	-0.546	7.100	1.000	32.113	-1666.113	-66.204	308.311	12.000	0.000
123.300	-0.555	7.097	1.000	31.872	-1657.335	-65.680	308.288	12.000	0.000
123.400	-0.559	7.095	1.000	31.656	-1666.744	-65.143	308.272	12.000	0.000
123.500	-0.560	7.095	1.000	31.424	-1662.530	-64.522	308.243	12.000	0.000
123.600	-0.560	7.095	1.000	31.185	-1662.339	-64.391	308.231	12.000	0.000
123.700	-0.560	7.093	1.000	30.970	-1668.133	-64.199	308.207	12.000	0.000
123.800	-0.592	7.084	1.000	30.727	-1660.109	-63.556	308.171	12.000	0.000
123.900	-0.623	7.076	1.000	30.500	-1665.391	-63.048	308.155	12.000	0.000
124.000	-0.633	7.075	1.000	30.257	-1675.235	-62.484	308.127	12.000	0.000
124.100	-0.637	7.074	1.000	30.041	-1645.929	-61.956	308.099	12.398	0.000
124.200	-0.638	7.072	1.000	29.819	-1632.259	-60.633	308.013	12.400	0.000
124.300	-0.638	7.072	1.000	29.577	-1645.025	-59.840	307.975	12.400	0.000
124.400	-0.638	7.072	1.000	29.361	-1632.777	-59.332	307.944	12.400	0.000
124.500	-0.653	7.067	1.000	29.135	-1636.334	-58.723	307.907	12.400	0.000
124.600	-0.694	7.057	1.000	28.888	-1649.261	-58.340	307.910	12.400	0.000
124.700	-0.712	7.053	1.000	28.676	-1629.518	-57.844	307.883	12.400	0.000
124.800	-0.717	7.051	1.000	28.455	-1630.491	-57.329	307.851	12.400	0.000
124.900	-0.720	7.051	1.000	28.209	-1643.397	-56.841	307.833	12.400	0.000
125.000	-0.721	7.050	1.000	27.991	-1630.677	-56.516	307.808	12.400	0.000
125.100	-0.722	7.050	1.000	27.770	-1628.372	-55.912	307.781	12.400	0.000
125.200	-0.733	7.048	1.000	27.552	-1636.250	-55.358	307.754	12.400	0.000
125.300	-0.779	7.036	1.000	27.327	-1623.426	-54.888	307.730	12.400	0.000
125.400	-0.800	7.033	1.000	27.085	-1630.154	-54.427	307.707	12.400	0.000
125.500	-0.807	7.031	1.000	26.872	-1635.631	-53.902	307.687	12.400	0.000
125.600	-0.809	7.030	1.000	26.644	-1627.628	-53.381	307.658	12.400	0.000
125.700	-0.807	7.029	1.000	26.401	-1629.959	-53.272	307.639	12.400	0.000
125.800	-0.809	7.029	1.000	26.203	-1634.461	-52.929	307.605	12.400	0.000
125.900	-0.811	7.028	1.000	25.960	-1620.996	-52.380	307.563	12.400	0.000
126.000	-0.853	7.020	1.000	25.763	-1622.031	-51.803	307.542	12.400	0.000
126.100	-0.885	7.011	1.000	25.525	-1623.541	-51.294	307.521	12.400	0.000
126.200	-0.896	7.006	1.000	25.307	-1623.992	-50.926	307.494	12.400	0.000
126.300	-0.901	7.006	1.000	25.084	-1620.278	-50.409	307.464	12.400	0.000
126.400	-0.901	7.006	1.000	24.862	-1616.241	-49.901	307.433	12.400	0.000
126.500	-0.903	7.005	1.000	24.641	-1630.864	-49.448	307.411	12.400	0.000
126.600	-0.903	7.005	1.000	24.404	-1613.049	-48.865	307.386	12.400	0.000
126.700	-0.943	6.999	1.000	24.200	-1619.034	-48.388	307.371	12.400	0.000
126.800	-0.980	6.989	1.000	23.989	-1620.629	-47.935	307.353	12.400	0.000
126.900	-0.992	6.988	1.000	23.781	-1617.344	-47.430	307.302	12.400	0.000
127.000	-0.999	6.987	1.000	23.521	-1614.428	-46.952	307.275	12.400	0.000
127.100	-0.998	6.987	1.000	23.323	-1617.528	-46.501	307.247	12.400	0.000
127.200	-1.000	6.986	1.000	23.083	-1627.075	-45.929	307.222	12.400	0.000
127.300	-0.999	6.986	1.000	22.869	-1611.341	-45.481	307.189	12.400	0.000
127.400	-1.014	6.982	1.000	22.645	-1618.221	-45.008	307.164	12.400	0.000
127.500	-1.066	6.972	1.000	22.432	-1619.705	-44.505	307.137	12.400	0.000
127.600	-1.090	6.967	1.000	22.205	-1624.677	-44.010	307.095	12.400	0.000
127.700	-1.095	6.964	1.000	21.990	-1604.688	-43.549	307.064	12.400	0.000
127.800	-1.096	6.965	1.000	21.762	-1616.013	-43.439	307.058	12.400	0.000
127.900	-1.098	6.966	1.000	21.551	-1615.668	-43.110	307.052	12.400	0.000
128.000	-1.098	6.964	1.000	21.327	-1619.408	-42.552	307.010	12.400	0.000
128.100	-1.115	6.961	1.000	21.110	-1604.207	-42.051	306.978	12.400	0.000
128.200	-1.163	6.952	1.000	20.890	-1614.932	-41.569	306.957	12.400	0.000
128.300	-1.186	6.948	1.000	20.671	-1610.764	-41.107	306.929	12.400	0.000
128.400	-1.194	6.946	1.000	20.445	-1617.050	-40.595	306.901	12.400	0.000
128.500	-1.195	6.946	1.000	20.200	-1599.309	-40.201	306.872	12.400	0.000
128.600	-1.196	6.947	1.000	20.003	-1609.018	-39.610	306.831	12.400	0.000
128.700	-1.195	6.945	1.000	19.795	-1606.714	-39.119	306.806	12.400	0.000
128.800	-1.197	6.947	1.000	19.566	-1630.213	-38.563	306.781	12.400	0.000
128.900	-1.243	6.936	1.000	19.355	-1600.005	-38.111	306.757	12.400	0.000
129.000	-1.279	6.930	1.000	19.127	-1608.550	-37.564	306.710	12.400	0.000
129.100	-1.291	6.927	1.000	18.930	-1593.448	-37.081	306.676	12.400	0.000
129.200	-1.293	6.927	1.000	18.694	-1616.155	-36.673	306.661	12.400	0.000
129.300	-1.297	6.926	1.000	18.494	-1599.986	-36.101	306.628	12.400	0.000
129.400	-1.296	6.926	1.000	18.255	-1583.557	-35.595	306.589	12.400	0.000
129.500	-1.296	6.925	1.000	18.055	-1596.761	-35.097	306.560	12.400	0.000
129.600	-1.333	6.923	1.000	17.862	-1588.659	-34.592	306.529	12.400	0.000
129.700	-1.373	6.915	1.000	17.626	-1604.439	-34.152	306.505	12.400	0.000
129.800	-1.386	6.913	1.000	17.422	-1575.578	-33.619	306.481	12.400	0.000
129.900	-1.389	6.911	1.000	17.208	-1586.005	-33.458	306.464	12.400	0.000
130.000	-1.391	6.911	1.000	16.982	-1565.844	-33.103	306.419	12.400	0.000
130.100	-1.390	6.912	1.000	16.787	-1563.865	-32.444	306.388	12.400	0.000
130.200	-1.392	6.911	1.000	16.574	-1564.760	-31.865	306.342	12.400	0.000
130.300	-1.411	6.908	1.000	16.349	-1542.871	-31.295	306.311	12.400	0.000
130.400	-1.461	6.900	1.000	16.154	-1549.384	-30.738	306.270	12.400	0.000
130.500	-1.480	6.897	1.000	15.958	-1536.282	-30.201	306.229	12.400	0.000
130.600	-1.486	6.895	1.000	15.744	-1530.288	-29.642	306.196	12.400	0.000
130.700	-1.487	6.894	1.000	15.519	-1536.647	-29.110	306.159	12.400	0.000
130.800	-1.487	6.894	1.000	15.323	-1511.443	-28.459	306.117	12.400	0.000
130.900	-1.489	6.894	1.000	15.128	-1512.114	-27.902	306.095	12.400	0.000
131.000	-1.500	6.891	1.000	14.933	-1520.079	-27.407	306.048	12.400	0.000
131.100	-1.549	6.885	1.000	14.721	-1497.297	-26.831	305.995	12.400	0.000
131.200	-1.568	6.884	1.000	14.499	-1508.128	-26.318	305.962	12.400	0.000
131.300	-1.577	6.884	1.000	14.299	-1499.223	-25.871	305.941	12.400	0.000
131.400	-1.577	6.883	1.000	14.103	-1468.489	-25.251	305.904	12.400	0.000
131.500	-1.580	6.882	1.000	13.906	-1480.714	-24.715	305.841	12.400	0.000
131.600	-1.580	6.884	1.000	13.712	-1483.768	-24.234	305.812	12.400	0.000
131.700	-1.583	6.882	1.000	13.515	-1461.360	-23.758	305.788	12.400	0.000
131.800	-1.624	6.874	1.000	13.320	-1475.028	-23.276	305.767	12.400	0.000
131.900	-1.655	6.870	1.000	13.125	-1469.533	-22.706	305.718	12.400	0.000
132.000	-1.666	6.867	1.000	12.932	-1431.788	-22.536	305.692	12.400	0.000
132.100	-1.671	6.867	1.000	12.739	-1442.322	-22.214	305.671	12.400	0.000
132.200	-1.672	6.866	1.000	12.538	-1464.083	-21.744	305.648	12.400	0.000
132.300	-1.671	6.865	1.000	12.336	-1445.685	-21.342	305.627	12.400	0.000
132.400	-1.674	6.867	1.000	12.143	-1431.143	-20.890	305.576	12.400	0.000
132.500	-1.709	6.862	1.000	11.948	-1446.006	-20.447	305.546	12.400	0.000
132.600	-1.743	6.857	1.000	11.752	-1432.268	-19.952	305.515	12.400	0.000
132.700	-1.757	6.853	1.000	11.576	-1365.977	-19.334	305.460	12.400	0.000
132.800	-1.760	6.855	1.000	11.405	-1307.225	-18.238	305.366	12.400	0.000
132.900	-1.760	6.854	1.000	11.260	-1267.618	-16.968	305.270	12.400	0.000
133.000	-1.761	6.853	1.000	11.114	-1197.249	-15.773	305.200	12.400	0.000
133.100	-1.760	6.852	1.000	10.936	-1147.178	-14.675	305.138	12.400	0.000
133.200	-1.779	6.852	1.000	10.789	-1106.783	-13.697	305.056	12.400	0.000
133.300	-1.820	6.847	1.000	10.671	-1073.649	-12.666	304.978	12.400	0.000
133.400	-1.837	6.845	1.000	10.484	-1051.978	-11.773	304.907	12.400	0.000
133.500	-1.844	6.846	1.000	10.244	-1285.774	-10.730	304.834	12.400	0.000
133.600	-1.845	6.846	1.000	10.043	-1572.802	-9.610	304.752	12.400	0.000
133.700	-1.847	6.846	1.000	9.805	-1598.030	-8.396	304.655	12.400	0.000
133.800	-1.847	6.845	1.000	9.562	-1603.392	-7.172	304.561	12.400	0.000
133.900	-1.857	6.845	1.000	9.318	-1667.364	-5.837	304.462	12.400	0.000
134.000	-1.898	6.839	1.000	9.055	-1665.182	-4.620	304.355	12.400	0.000
134.100	-1.916	6.836	1.000	8.811	-1682.736	-4.277	304.300	12.400	0.000
134.200	-1.922	6.835	1.000	8.531	-1735.447	-3.375	304.246	12.400	0.000
134.300	-1.926	6.835	1.000	8.232	-1850.555	-2.254	304.156	12.400	0.000
134.400	-1.926	6.835	1.000	7.939	-1881.450	-1.123	304.077	12.400	0.000
134.500	-1.926	6.835	1.000	7.643	-1906.095	-0.280	303.999	12.400	0.000
134.600	-1.928	6.834	1.000	7.349	-1901.589	0.112	303.965	12.400	0.000
134.700	-1.961	6.831	1.000	7.014	-1978.124	0.256	303.958	12.400	0.000
134.800	-1.987	6.826	1.000	6.696	-2097.642	0.282	303.935	12.400	0.000
134.900	-1.996	6.826	1.000	6.373	-2150.586	0.259	303.923	12.400	0.000
135.000	-1.999	6.826	1.000	6.043	-2147.143	0.291	303.922	12.400	0.000
135.100	-2.000	6.826	1.000	5.740	-2146.938	0.291	303.928	12.400	0.000
135.200	-2.000	6.827	1.000	5.431	-2141.461	0.310	303.933	12.400	0.000
135.300	-2.004	6.826	1.000	5.110	-2089.641	0.261	303.931	12.400	0.000
135.400	-2.030	6.825	1.000	4.772	-2110.206	0.296	303.916	12.400	0.000
135.500	-2.059	6.821	1.000	4.411	-2257.396	0.334	303.905	12.400	0.000
135.600	-2.068	6.820	1.000	4.065	-2361.942	0.322	303.911	12.400	0.000
135.700	-2.072	6.819	1.000	3.725	-2344.981	0.314	303.909	12.400	0.000
135.800	-2.073	6.820	1.000	3.359	-2363.363	0.314	303.906	12.400	0.000
135.900	-2.074	6.819	1.000	3.011	-2338.500	0.312	303.912	12.400	0.000
136.000	-2.073	6.819	1.000	2.673	-2266.643	0.320	303.917	12.400	0.000
136.100	-2.084	6.819	1.000	2.375	-2195.102	0.342	303.891	12.400	0.000
136.200	-2.117	6.814	1.000	2.034	-2132.606	0.350	303.882	12.400	0.000
136.300	-2.131	6.813	1.000	1.694	-2136.596	0.343	303.883	12.400	0.000
136.400	-2.135	6.813	1.000	1.374	-2117.297	0.353	303.883	12.400	0.000
136.500	-2.136	6.813	1.000	1.057	-2041.088	0.353	303.880	12.400	0.000
136.600	-2.137	6.813	1.000	0.713	-2050.350	0.352	303.887	12.400	0.000
136.700	-2.137	6.813	1.000	0.375	-2118.246	0.357	303.886	12.400	0.000
136.800	-2.143	6.813	1.000	0.063	-426.500	0.373	303.880	12.400	0.000
136.900	-2.174	6.810	1.000	0.004	-49.205	0.360	303.879	12.400	0.000
137.000	-2.188	6.808	1.000	0.000	-356.801	0.343	303.882	12.400	0.000
137.100	-2.194	6.808	1.000	0.000	-50.820	0.340	303.886	12.400	0.000
137.200	-2.194	6.807	1.000	0.090	6.088	0.333	303.884	12.400	0.000
137.300	-2.196	6.806	1.000	0.082	66.125	0.342	303.870	12.400	0.000
137.400	-2.195	6.806	1.000	0.009	0.861	0.342	303.853	12.400	0.000
137.500	-2.199	6.807	1.000	0.000	-8.320	0.342	303.856	12.400	0.000
137.600	-2.223	6.806	1.000	0.000	-8.852	0.334	303.852	12.400	0.000
137.700	-2.243	6.804	1.000	0.009	-9.235	0.328	303.851	12.400	0.000
137.800	-2.248	6.803	1.000	0.029	-9.014	0.329	303.852	12.400	0.000
137.900	-2.250	6.803	1.000	0.003	-8.144	0.328	303.852	12.400	0.000
138.000	-2.251	6.802	1.000	0.000	-8.951	0.329	303.858	12.400	0.000
138.100	-2.252	6.802	1.000	0.000	-8.992	0.335	303.855	12.400	0.000
138.200	-2.253	6.802	1.000	0.000	-9.114	0.332	303.852	12.400	0.000
138.300	-2.274	6.800	1.000	0.001	-9.515	0.337	303.849	12.400	0.000
138.400	-2.294	6.800	1.000	0.000	-9.300	0.338	303.856	12.400	0.000
138.500	-2.302	6.801	1.000	0.000	-9.590	0.344	303.863	12.400	0.000
138.600	-2.303	6.802	1.000	0.000	-9.826	0.340	303.853	12.400	0.000
138.700	-2.303	6.800	1.000	0.001	-9.719	0.342	303.854	12.400	0.000
138.800	-2.303	6.800	1.000	0.000	-9.451	0.334	303.853	12.400	0.000
138.900	-2.304	6.801	1.000	0.000	-8.774	0.338	303.855	12.400	0.000
139.000	-2.312	6.799	1.000	0.001	-9.211	0.330	303.853	12.400	0.000
139.100	-2.335	6.798	1.000	0.000	-9.533	0.335	303.855	12.400	0.000
139.200	-2.345	6.797	1.000	0.000	-8.845	0.337	303.850	12.400	0.000
139.300	-2.348	6.795	1.000	0.000	-9.419	0.334	303.829	12.400	0.000
139.400	-2.349	6.797	1.000	0.000	-8.773	0.331	303.822	12.400	0.000
139.500	-2.350	6.798	1.000	0.000	-8.887	0.330	303.824	12.400	0.000
139.600	-2.350	6.798	1.000	0.001	-8.717	0.330	303.825	12.400	0.000
139.700	-2.357	6.798	1.000	0.000	-8.566	0.330	303.835	12.400	0.000
139.800	-2.380	6.795	1.000	0.000	-9.007	0.339	303.833	12.400	0.000
139.900	-2.391	6.795	1.000	0.000	-8.991	0.337	303.826	12.400	0.000
140.000	-2.394	6.795	1.000	0.000	-9.177	0.337	303.825	12.400	0.000
140.100	-2.395	6.795	1.000	0.000	-8.811	0.334	303.818	12.400	0.000
140.200	-2.395	6.795	1.000	0.000	-8.638	0.340	303.828	12.400	0.000
140.300	-2.395	6.795	1.000	0.001	-8.884	0.340	303.825	12.400	0.000
140.400	-2.397	6.796	1.000	0.000	-8.912	0.340	303.825	12.400	0.000
140.500	-2.415	6.796	1.000	0.000	-8.655	0.288	303.833	12.400	0.000
140.600	-2.428	6.793	1.000	0.000	-8.880	0.231	303.848	12.400	0.000
140.700	-2.433	6.795	1.000	0.000	-8.975	0.243	303.833	12.400	0.000
140.800	-2.435	6.794	1.000	0.000	-8.401	0.211	303.813	12.400	0.000
140.900	-2.437	6.793	1.000	0.000	-8.465	0.201	303.829	12.400	0.000
141.000	-2.436	6.793	1.000	0.000	-8.222	0.201	303.829	12.400	0.000
141.100	-2.437	6.793	1.000	0.000	-8.704	0.188	303.825	12.400	0.000
141.200	-2.450	6.793	1.000	0.000	-8.314	0.185	303.829	12.400	0.000
141.300	-2.466	6.793	1.000	0.001	-8.393	0.185	303.825	12.400	0.000
141.400	-2.471	6.793	1.000	0.000	-8.728	0.185	303.821	12.400	0.000
141.500	-2.474	6.793	1.000	0.000	-8.768	0.185	303.833	12.400	0.000
141.600	-2.474	6.793	1.000	0.000	-8.832	0.185	303.833	12.400	0.000
141.700	-2.475	6.793	1.000	0.000	-8.903	0.185	303.829	12.400	0.000
141.800	-2.475	6.793	1.000	0.001	-8.783	0.185	303.821	12.400	0.000
141.900	-2.481	6.793	1.000	0.001	-8.768	0.185	303.825	12.400	0.000
142.000	-2.498	6.793	1.000	0.001	-9.087	0.185	303.825	12.400	0.000
142.100	-2.505	6.793	1.000	0.001	-8.675	0.185	303.832	12.400	0.000
142.200	-2.508	6.793	1.000	0.000	-8.751	0.185	303.840	12.400	0.000
142.300	-2.509	6.793	1.000	0.000	-8.258	0.188	303.837	12.400	0.000
142.400	-2.508	6.794	1.000	0.001	-8.697	0.140	303.829	12.400	0.000
142.500	-2.509	6.793	1.000	0.000	-8.768	0.143	303.825	12.400	0.000
142.600	-2.513	6.793	1.000	0.000	-8.509	0.143	303.836	12.400	0.000
142.700	-2.530	6.793	1.000	0.000	-8.990	0.121	303.833	12.400	0.000
142.800	-2.539	6.794	1.000	0.002	-8.605	0.123	303.844	12.400	0.000
142.900	-2.542	6.794	1.000	0.000	-8.616	0.123	303.829	12.400	0.000
143.000	-2.543	6.796	1.000	0.000	-8.753	0.120	303.833	12.400	0.000
143.100	-2.543	6.795	1.000	0.000	-8.960	0.130	303.825	12.400	0.000
143.200	-2.543	6.793	1.000	0.000	-8.855	0.124	303.829	12.400	0.000
143.300	-2.543	6.797	1.000	0.000	-8.712	0.126	303.825	12.400	0.000
143.400	-2.556	6.794	1.000	0.000	-8.760	0.120	303.836	12.400	0.000
143.500	-2.567	6.794	1.000	0.000	-8.572	0.120	303.837	12.400	0.000
143.600	-2.570	6.796	1.000	0.000	-8.745	0.120	303.829	12.400	0.000
143.700	-2.572	6.795	1.000	0.000	-8.639	0.120	303.833	12.400	0.000
143.800	-2.572	6.795	1.000	0.000	-8.624	0.126	303.833	12.400	0.000
143.900	-2.573	6.794	1.000	0.000	-8.368	0.120	303.829	12.400	0.000
144.000	-2.574	6.795	1.000	0.000	-8.786	0.123	303.836	12.400	0.000
144.100	-2.585	6.796	1.000	0.000	-8.582	0.120	303.829	12.400	0.000
144.200	-2.595	6.796	1.000	0.000	-8.421	0.120	303.836	12.400	0.000
144.300	-2.599	6.799	1.000	0.000	-8.472	0.126	303.829	12.400	0.000
144.400	-2.601	6.800	1.000	0.000	-8.543	0.123	303.829	12.400	0.000
144.500	-2.600	6.798	1.000	0.001	-8.615	0.126	303.833	12.400	0.000
144.600	-2.600	6.798	1.000	0.000	-8.431	0.120	303.833	12.400	0.000
144.700	-2.601	6.798	1.000	0.001	-8.535	0.120	303.833	12.400	0.000
144.800	-2.606	6.798	1.000	0.000	-8.615	0.126	303.833	12.400	0.000
144.900	-2.619	6.798	1.000	0.000	-8.688	0.117	303.836	12.400	0.000
145.000	-2.624	6.800	1.000	0.000	-8.631	0.120	303.833	12.400	0.000
145.100	-2.625	6.800	1.000	0.000	-8.688	0.123	303.825	12.400	0.000
145.200	-2.625	6.800	1.000	0.002	-8.060	0.120	303.825	12.400	0.000
145.300	-2.627	6.800	1.000	0.000	-7.911	0.120	303.825	12.400	0.000
145.400	-2.627	6.800	1.000	0.000	-8.227	0.120	303.836	12.400	0.000
145.500	-2.628	6.800	1.000	0.000	-8.198	0.117	303.826	12.400	0.000
145.600	-2.628	6.800	1.000	0.000	-8.191	0.117	303.825	12.400	0.000
145.700	-2.628	6.800	1.000	0.000	-8.191	0.117	303.825	12.400	0.000
145.800	-2.628	6.800	1.000	0.000	-8.191	0.117	303.825	12.400	0.000
145.900	-2.628	6.800	1.000	0.000	-8.191	0.117	303.825	12.400	0.000
146.000	-2.628	6.800	1.000	0.000	-8.191	0.117	303.825	12.400	0.000
146.100	-2.628	6.800	1.000	0.000	-8.191	0.117	303.825	12.400	0.000
146.200	-2.628	6.800	1.000	0.000	-8.191	0.117	303.825	12.400	0.000
146.300	-2.628	6.800	1.000	0.000	-8.191	0.117	303.825	12.400	0.000
146.400	-2.628	6.800	1.000	0.000	-8.191	0.117	303.825	12.400	0.000
146.500	-2.628	6.800	1.000	0.000	-8.191	0.117	303.825	12.400	0.000
146.600	-2.628	6.800	1.000	0.000	-8.191	0.117	303.825	12.400	0.000
146.700	-2.628	6.800	1.000	0.000	-8.191	0.117	303.825	12.400	0.000
146.800	-2.628	6.800	1.000	0.000	-8.191	0.117	303.825	12.400	0.000
146.900	-2.628	6.800	1.000	0.000	-8.191	0.117	303.825	12.400	0.000
147.000	-2.628	6.800	1.000	0.000	-8.191	0.117	303.825	12.400	0.000
147.100	-2.628	6.800	1.000	0.000	-8.191	0.117	303.825	12.400	0.000
147.200	-2.628	6.800	1.000	0.000	-8.191	0.117	303.825	12.400	0.000
147.300	-2.628	6.800	1.000	0.000	-8.191	0.117	303.825	12.400	0.000
147.400	-2.628	6.800	1.000	0.000	-8.191	0.117	303.825	12.400	0.000
147.500	-2.628	6.800	1.000	0.000	-8.191	0.117	303.825	12.400	0.000
147.600	-2.628	6.800	1.000	0.000	-8.191	0.117	303.825	12.400	0.000
147.700	-2.628	6.800	1.000	0.000	-8.191	0.117	303.825	12.400	0.000
147.800	-2.628	6.800	1.000	0.000	-8.191	0.117	303.825	12.400	0.000
147.900	-2.628	6.800	1.000	0.000	-8.191	0.117	303.825	12.400	0.000
148.000	-2.628	6.800	1.000	0.000	-8.191	0.117	303.825	12.400	0.000
148.100	-2.628	6.800	1.000	0.000	-8.191	0.117	303.825	12.400	0.000
148.200	-2.628	6.800	1.000	0.000	-8.191	0.117	303.825	12.400	0.000
148.300	-2.628	6.800	1.000	0.000	-8.191	0.117	303.825	12.400	0.000
148.400	-2.628	6.800	1.000	0.000	-8.191	0.117	303.825	12.400	0.000
148.500	-2.628	6.800	1.000	0.000	-8.191	0.117	303.825	12.400	0.000
148.600	-2.628	6.800	1.000	0.000	-8.191	0.117	303.825	12.400	0.000
148.700	-2.628	6.800	1.000	0.000	-8.191	0.117	303.825	12.400	0.000
148.800	-2.628	6.800	1.000	0.000	-8.191	0.117	303.825	12.400	0.000
148.900	-2.628	6.800	1.000	0.000	-8.191	0.117	303.825	12.400	0.000
149.000	-2.628	6.800	1.000	0.000	-8.191	0.117	303.825	12.400	0.000
149.100	-2.628	6.800	1.000	0.000	-8.191	0.117	303.825	12.400	0.000
149.200	-2.628	6.800	1.000	0.000	-8.191	0.117	303.825	12.400	0.000
149.300	-2.628	6.800	1.000	0.000	-8.191	0.117	303.825	12.400	0.000
149.400	-2.628	6.800	1.000	0.000	-8.191	0.117	303.825	12.400	0.000
149.500	-2.628	6.800	1.000	0.000	-8.191	0.117	303.825	12.400	0.000
149.600	-2.628	6.800	1.000	0.000	-8.191	0.117	303.825	12.400	0.000
149.700	-2.628	6.800	1.000	0.000	-8.191	0.117	303.825	12.400	0.000
149.800	-2.628	6.800	1.000	0.000	-8.191	0.117	303.825	12.400	0.000
149.900	-2.628	6.800	1.000	0.000	-8.191	0.117	303.825	12.400	0.000
150.000	-2.628	6.800	1.000	0.000	-8.191	0.117	303.825	12.400	0.000
150.100	-2.628	6.800	1.000	0.000	-8.191	0.117	303.825	12.400	0.000
150.200	-2.628	6.800	1.000	0.000	-8.191	0.117	303.825	12.400	0.000
150.300	-2.628	6.800	1.000	0.000	-8.191	0.117	303.825	12.400	0.000
150.400	-2.628	6.800	1.000	0.000	-8.191	0.117	303.825	12.400	0.000
150.500	-2.628	6.800	1.000	0.000	-8.191	0.117	303.825	12.400	0.000
150.600	-2.628	6.800	1.000	0.000	-8.191	0.117	303.825	12.400	0.000
150.700	-2.628	6.800	1.000	0.000	-8.191	0.117	303.825	12.400	0.000
150.800	-2.628	6.800	1.000	0.000	-8.191	0.117	303.825	12.400	0.000
150.900	-2.628	6.800	1.000	0.000	-8.191	0.117	303.825	12.400	0.000
151.000	-2.628	6.800	1.000	0.000	-8.191	0.117	303.825	12.400	0.000
151.100	-2.628	6.800	1.000	0.000	-8.191	0.117	303.825	12.400	0.000
151.200	-2.628	6.800	1.000	0.000	-8.191	0.117	303.825	12.400	0.000
151.300	-2.628	6.800	1.000	0.000	-8.191	0.117	303.825	12.400	0.000
151.400	-2.628	6.800	1.000	0.000	-8.191	0.117	303.825	12.400	0.000
151.500	-2.628	6.800	1.000	0.000	-8.191	0.117	303.825	12.400	0.000
151.600	-2.628	6.800	1.000	0.000	-8.191	0.117	303.825	12.400	0.000
151.700	-2.628	6.800	1.000	0.000	-8.191	0.117	303.825	12.400	0.000
151.800	-2.628	6.800	1.000	0.000	-8.191	0.117	303.825	12.400	0.000
151.900	-2.628	6.800	1.000	0.000	-8.191	0.117	303.825	12.400	0.000
152.000	-2.628	6.800	1.000	0.000	-8.191	0.117	303.825	12.400	0.000
152.100	-2.628	6.800	1.000	0.000	-8.191	0.117	303.825	12.400	0.000
152.200	-2.628	6.800	1.000	0.000	-8.191	0.117	303.825	12.400	0.000
152.300	-2.628	6.800	1.000	0.000	-8.191	0.117	303.825	12.400	0.000
152.400	-2.628	6.800	1.000	0.000	-8.191	0.117	303.825	12.400	0.000
152.500	-2.628	6.800	1.000	0.000	-8.191	0.117	303.825	12.400	0.000
152.600	-2.628	6.800	1.000	0.000	-8.191	0.117	303.825	12.400	0.000
152.700	-2.628	6.800	1.000	0.000	-8.191	0.117	303.825	12.400	0.000
152.800	-2.628	6.800	1.000	0.000	-8.191	0.117	303.825	12.400	0.000
152.900	-2.628	6.800	1.000	0.000	-8.191	0.117	303.825	12.400	0.000
153.000	-2.628	6.800	1.000	0.000	-8.191	0.117	303.825	12.400	0.000
153.100	-2.628	6.800	1.000	0.000	-8.191	0.117	303.825	12.400	0.000
153.200	-2.628	6.800	1.000	0.000	-8.191	0.117	303.825	12.400	0.000
153.300	-2.628	6.800	1.000	0.000	-8.191	0.117	303.825	12.400	0.000
153.400	-2.628	6.800	1.000	0.000	-8.191	0.117	303.825	12.400	0.000
153.500	-2.628	6.800	1.000	0.000	-8.191	0.117	303.825	12.400	0.000
153.600	-2.628	6.800	1.000	0.000	-8.191	0.117	303.825	12.400	0.000
153.700	-2.628	6.800	1.000	0.000	-8.191	0.117	303.825	12.400	0.000
153.800	-2.628	6.800	1.000	0.000	-8.191	0.117	303.825	12.400	0.000
153.900	-2.628	6.800	1.000	0.000	-8.191	0.117	303.825	12.400	0.000
154.000	-2.628	6.800	1.000	0.000	-8.191	0.117	303.825	12.400	0.000
154.100	-2.628	6.800	1.000	0.000	-8.191	0.117	303.825	12.400	0.000
154.200	-2.628	6.800	1.000	0.000	-8.191	0.117	303.825	12.400	0.000
154.300	-2.628	6.800	1.000	0.000	-8.191	0.117	303.825	12.400	0.000
154.400	-2.628	6.800	1.000	0.000	-8.191	0.117	303.825	12.400	0.000
154.500	-2.628	6.800	1.000	0.000	-8.191	0.117	303.825	12.400	0.000
154.600	-2.628	6.800	1.000	0.000	-8.191	0.117	303.825	12.400	0.000
154.700	-2.628	6.800	1.000	0.000	-8.191	0.117	303.825	12.400	0.000
154.800	-2.628	6.800	1.000	0.000	-8.191	0.117	303.825	12.400	0.000
154.900	-2.628	6.800	1.000	0.000	-8.191	0.117	303.825	12.400	0.000
155.000	-2.628	6.800	1.000	0.000	-8.191	0.117	303.825	12.400	0.000
155.100	-2.628	6.800	1.000	0.000	-8.191	0.117	303.825	12.400	0.000
155.200	-2.628	6.800	1.000	0.000	-8.191	0.117	303.825	12.400	0.000
155.300	-2.628	6.800	1.000	0.000	-8.191	0.117	303.825	12.400	0.000
155.400	-2.628	6.800	1.000	0.000	-8.191	0.117	303.825	12.400	0.000
155.500	-2.628	6.800	1.000	0.000	-8.191	0.117	303.825	12.400	0.000
155.600	-2.628	6.800	1.000	0.000	-8.191	0.117	303.825	12.400	0.000
