Timestamp [sec]	Dyno Speed [mph]	Dyno Tractive Effort [N]	Cell Temp [C]	Cell RH [%]	Phase #	HV Battery Voltage w/500A max clamp [V]	HV Battery Current w/500A max clamp [A]	HV Battery Voltage w/200A max clamp [V]	HV Battery Current w/200A max clamp [A]	DCDC Outlet Voltage [V]	DCDC Outlet Current [A]	Accelerator Pedal Position [%]	Inverter Cooling Hose Temp [C]
-10.000000	-0.004814	-2.738338	38.288694	32.296459	1.000000	0.000000	0.000000	0.000000	0.000000	0.000000	0.000000	0.000000	0.000000
-9.000000	-0.003842	-2.738338	38.286749	32.309101	1.000000	0.000000	0.000000	0.000000	0.000000	12.707800	0.000000	0.000000	48.197002
-8.000000	-0.005138	-2.738338	38.285777	32.315259	1.000000	0.000000	0.000000	0.000000	0.000000	12.670500	0.000000	0.000000	48.203361
-7.000000	-0.004166	-2.738338	38.283833	32.317852	1.000000	0.000000	0.000000	0.000000	0.000000	12.634200	0.000000	0.000000	48.242614
-6.000000	-0.004166	-2.738338	38.278971	32.320770	1.000000	0.000000	0.000000	0.000000	0.000000	12.619700	0.000000	0.000000	48.199984
-5.000000	-0.004814	-2.738338	38.276703	32.321418	1.000000	0.000000	0.000000	0.000000	0.000000	12.609900	0.000000	0.000000	48.192133
-4.000000	-0.005462	-2.695101	38.275731	32.317204	1.000000	0.000000	0.000000	0.000000	0.000000	12.598400	0.000000	0.000000	48.215685
-3.000000	-0.005138	-2.738338	38.275082	32.319797	1.000000	112.761000	0.000000	112.836000	0.000000	12.538900	0.000000	0.000000	48.213799
-2.000000	-0.004166	-2.738338	38.271842	32.327252	1.000000	377.016000	0.513000	377.269000	0.489000	12.920800	11.910000	0.000000	48.220553
-1.000000	-0.004166	-2.738338	38.270869	32.337625	1.000000	379.702000	1.620000	379.953000	1.537000	14.055600	37.321000	0.000000	48.192133
-0.000000	-0.004814	-2.738338	38.268277	32.340866	1.000000	379.679000	2.022000	379.909000	1.926000	14.093700	33.684000	0.000000	48.209325
1.000000	-0.004166	-2.738338	38.265684	32.346700	1.000000	379.548000	3.609000	379.781000	3.505000	14.205600	41.375000	0.000000	48.209325
2.000000	-0.004490	-2.738338	38.265036	32.358693	1.000000	379.514000	4.007000	379.748000	3.908000	14.322700	46.434000	0.000000	48.226518
3.000000	-0.004166	-2.781574	38.259526	32.373280	1.000000	379.500000	4.055000	379.717000	3.941000	14.364600	40.419000	0.000000	48.210817
4.000000	-0.004814	-2.738338	38.260175	32.381383	1.000000	379.491000	4.047000	379.716000	3.935000	14.366000	39.798000	0.000000	48.240727
5.000000	-0.004814	-2.803193	38.258878	32.391755	1.000000	379.437000	4.491000	379.685000	4.357000	14.366000	39.899000	0.000000	48.265769
6.000000	0.258696	290.763074	38.256934	32.410231	1.000000	379.321000	5.617000	379.568000	5.497000	14.365400	40.434000	0.000000	48.306511
7.000000	1.039825	605.983010	38.249480	32.444914	1.000000	379.251000	5.990000	379.543000	5.873000	14.365500	39.906000	0.000000	48.355101
8.000000	1.462802	362.338086	38.247211	32.468575	1.000000	379.294000	5.615000	379.547000	5.514000	14.370200	36.494000	0.000000	48.367819
9.000000	1.873786	441.981245	38.245267	32.491589	1.000000	378.275000	17.744000	378.547000	17.568000	14.373000	33.939000	11.500000	48.320720
10.000000	5.462769	4199.475870	38.243322	32.514927	1.000000	374.718000	59.651000	375.003000	59.143000	14.373300	32.724000	41.000000	48.171563
11.000000	11.376989	4698.774862	38.237813	32.549609	1.000000	370.393000	108.551000	370.649000	107.653000	14.375800	30.775000	48.000000	47.979753
12.000000	17.712565	4965.804908	38.235544	32.579106	1.000000	365.925000	156.723000	366.204000	155.416000	14.373100	27.057000	49.500000	47.841790
13.000000	24.050411	4906.710022	38.231655	32.598554	1.000000	366.398000	145.070000	366.686000	143.830000	14.357300	26.585000	0.000000	47.741194
14.000000	26.364953	1772.598394	38.225822	32.618002	1.000000	373.050000	63.577000	373.295000	62.985000	14.358000	26.540000	17.500000	47.750538
15.000000	28.018291	1366.984442	38.219340	32.646202	1.000000	372.404000	71.389000	372.638000	70.728000	14.358000	26.578000	27.500000	47.861970
16.000000	30.422291	2278.967314	38.213182	32.672457	1.000000	369.605000	103.123000	369.886000	102.212000	14.358300	26.334000	41.000000	47.973788
17.000000	33.071975	2056.844126	38.206701	32.693201	1.000000	369.331000	103.638000	369.603000	102.724000	14.358700	26.353000	36.500000	48.075464
18.000000	35.511305	2068.524572	38.197950	32.715243	1.000000	368.643000	109.259000	368.946000	108.307000	14.358000	26.397000	39.000000	48.138273
19.000000	37.898776	1969.824814	38.188228	32.747332	1.000000	368.846000	104.356000	369.153000	103.455000	14.327700	26.266000	32.000000	48.176036
20.000000	39.754365	1617.702805	38.167811	32.802111	1.000000	368.792000	103.343000	369.083000	102.445000	14.241400	26.161000	40.000000	48.153975
21.000000	41.902312	1798.576557	38.148690	32.845545	1.000000	368.691000	102.055000	368.958000	101.175000	14.174700	26.054000	38.500000	48.158843
22.000000	43.707988	1419.784325	38.132161	32.888007	1.000000	371.991000	60.690000	372.248000	60.112000	14.089000	25.645000	16.500000	48.191344
23.000000	44.018820	315.313582	38.104290	32.937924	1.000000	376.699000	5.603000	376.937000	5.466000	14.028500	25.522000	9.000000	48.248183
24.000000	43.280797	-496.543119	38.064428	33.021227	1.000000	378.726000	-15.327000	378.945000	-15.317000	13.938400	25.489000	0.500000	48.309100
25.000000	42.353812	-427.191677	38.028130	33.093833	1.000000	378.811000	-13.663000	379.057000	-13.647000	13.851400	25.870000	0.000000	48.425353
26.000000	41.330240	-569.353485	37.998314	33.161901	1.000000	379.713000	-22.314000	379.967000	-22.233000	13.784100	26.578000	0.000000	48.497487
27.000000	40.014958	-988.402213	37.964934	33.227053	1.000000	380.525000	-30.430000	380.774000	-30.272000	13.697300	25.895000	0.000000	48.574483
28.000000	38.887667	-541.336195	37.900765	33.350872	1.000000	378.088000	0.940000	378.352000	0.883000	13.633300	25.023000	0.000000	48.605877
29.000000	38.446539	314.599779	37.858958	33.450382	1.000000	375.359000	33.818000	375.612000	33.494000	13.548400	25.108000	21.500000	48.654457
30.000000	39.192016	584.028143	37.818124	33.536926	1.000000	376.358000	19.504000	376.618000	19.263000	13.481700	25.158000	5.000000	48.652967
31.000000	38.678285	-268.189224	37.779233	33.618608	1.000000	378.039000	-0.365000	378.299000	-0.439000	13.380400	24.709000	8.000000	48.652967
32.000000	38.483489	92.996287	37.727380	33.725249	1.000000	379.736000	-20.756000	379.978000	-20.639000	13.293700	24.710000	0.000000	48.608859
33.000000	36.410415	-2020.956310	37.664184	33.861386	1.000000	384.147000	-71.653000	384.353000	-71.147000	13.230700	25.207000	0.000000	48.624556
34.000000	32.118737	-2984.030038	37.623349	33.947930	1.000000	383.802000	-62.949000	384.022000	-62.505000	13.166700	24.822000	0.000000	48.585314
35.000000	27.873409	-3042.269782	37.585755	34.027992	1.000000	382.654000	-45.848000	382.874000	-45.532000	13.164500	26.346000	0.000000	48.561768
36.000000	23.745414	-3015.722489	37.540707	34.125556	1.000000	379.610000	-8.015000	379.833000	-8.199000	13.159800	29.739000	0.000000	48.555411
37.000000	18.957835	-3924.276169	37.488530	34.252618	1.000000	378.811000	0.723000	379.053000	0.194000	13.158200	31.489000	0.000000	48.531864
38.000000	11.838536	-5815.821638	37.452557	34.336569	1.000000	378.538000	2.815000	378.802000	2.743000	13.161300	28.834000	0.000000	48.550545
39.000000	5.063453	-4135.076765	37.422417	34.413389	1.000000	378.401000	4.216000	378.642000	4.116000	13.161400	28.794000	0.000000	48.568126
40.000000	1.623890	-2069.013773	37.396166	34.485671	1.000000	378.301000	5.187000	378.539000	5.087000	13.160000	29.715000	0.000000	48.563259
41.000000	-0.145158	-454.906311	37.351766	34.610787	1.000000	378.307000	4.664000	378.590000	4.561000	13.159700	30.364000	0.000000	48.552036
42.000000	-0.016158	-3.948962	37.325191	34.683718	1.000000	378.361000	4.049000	378.642000	3.945000	13.155700	33.926000	0.000000	48.547562
43.000000	-0.002221	-3.386886	37.303478	34.746600	1.000000	378.349000	4.256000	378.603000	4.163000	13.149200	39.582000	0.000000	48.542696
44.000000	-0.001573	-3.170704	37.284357	34.806889	1.000000	378.370000	4.065000	378.625000	3.971000	13.154700	34.481000	0.000000	48.508318
45.000000	-0.002545	-2.997757	37.255837	34.891489	1.000000	378.376000	3.780000	378.651000	3.691000	13.161000	29.258000	0.000000	48.533356
46.000000	-0.003518	-2.954521	37.234772	34.971226	1.000000	378.393000	3.826000	378.639000	3.725000	13.160700	29.373000	0.000000	48.514283
47.000000	-0.004166	-2.911284	37.222133	35.028598	1.000000	378.403000	3.761000	378.660000	3.678000	13.160300	29.389000	0.000000	48.534847
48.000000	-0.004166	-2.932902	37.210142	35.079163	1.000000	378.221000	6.101000	378.471000	6.005000	13.161300	29.122000	0.000000	48.526998
49.000000	1.130903	1406.351830	37.193937	35.151121	1.000000	376.841000	22.809000	377.085000	22.600000	13.161700	28.501000	29.500000	48.547170
50.000000	6.018311	4082.562635	37.181298	35.215300	1.000000	373.693000	59.539000	373.938000	59.015000	13.161000	28.515000	40.000000	48.550545
51.000000	11.667401	4421.232608	37.174492	35.261003	1.000000	371.301000	84.984000	371.578000	84.264000	13.162200	27.250000	43.000000	48.578564
52.000000	16.585599	3497.261657	37.165094	35.302493	1.000000	370.153000	95.140000	370.432000	94.351000	13.165000	24.651000	39.500000	48.586413
53.000000	20.979048	3619.366011	37.154723	35.342037	1.000000	367.536000	123.155000	367.827000	122.145000	13.164700	24.176000	48.500000	48.667878
54.000000	25.638600	3765.848032	37.144028	35.418857	1.000000	365.519000	142.600000	365.792000	141.429000	13.164000	24.347000	56.000000	48.791949
55.000000	29.977274	3316.192549	37.137547	35.477526	1.000000	365.805000	135.341000	366.091000	134.187000	13.164000	24.556000	46.000000	48.883132
56.000000	32.810409	2137.893447	37.130093	35.541381	1.000000	366.004000	130.648000	366.310000	129.540000	13.164000	24.558000	47.000000	48.992592
57.000000	36.225666	2996.774833	37.123935	35.617228	1.000000	362.763000	165.775000	363.077000	164.394000	13.164000	24.581000	62.000000	49.113653
58.000000	39.834423	2968.092792	37.110648	35.761145	1.000000	361.867000	171.604000	362.158000	170.174000	13.164000	24.667000	66.500000	49.189125
59.000000	43.211760	2724.403675	37.100925	35.895985	1.000000	363.136000	152.398000	363.412000	151.109000	13.164000	24.599000	55.000000	49.236196
60.000000	45.511071	1673.725643	37.089906	36.018184	1.000000	365.813000	118.304000	366.091000	117.284000	13.164000	24.668000	37.500000	49.292599
61.000000	47.463575	1884.882038	37.078563	36.153997	1.000000	364.326000	135.538000	364.576000	134.381000	13.164000	24.717000	47.000000	49.364689
62.000000	49.512018	1820.098850	37.053609	36.393857	1.000000	364.114000	135.642000	364.376000	134.495000	13.165200	23.652000	43.500000	49.375515
63.000000	51.477163	1793.623185	37.032219	36.594821	1.000000	363.930000	135.493000	364.226000	134.362000	13.167700	21.651000	43.000000	49.388221
64.000000	53.287702	1639.571178	37.010182	36.768882	1.000000	365.157000	118.525000	365.458000	117.496000	13.167300	21.947000	35.500000	49.388221
65.000000	54.654521	1275.293055	36.987820	36.946509	1.000000	367.784000	85.949000	368.064000	85.172000	13.168000	21.870000	25.500000	49.394184
66.000000	55.405509	802.668355	36.957356	37.148769	1.000000	369.484000	66.425000	369.770000	65.786000	13.168000	21.822000	21.000000	49.406891
67.000000	55.878078	730.639076	36.907123	37.435953	1.000000	370.264000	58.535000	370.552000	57.962000	13.168000	21.746000	18.000000	49.381478
68.000000	55.970452	332.726059	36.876983	37.605476	1.000000	372.127000	36.929000	372.387000	36.538000	13.168000	21.821000	16.000000	49.345628
69.000000	56.051158	461.491873	36.845871	37.772082	1.000000	372.682000	31.979000	372.936000	31.626000	13.168000	21.818000	12.500000	49.326958
70.000000	55.691708	-69.084849	36.806657	37.948412	1.000000	374.891000	7.024000	375.122000	6.871000	13.168300	21.833000	7.500000	49.318724
71.000000	55.118986	-64.242353	36.749294	38.172714	1.000000	375.389000	3.340000	375.605000	3.204000	13.169000	21.773000	7.000000	49.300053
72.000000	54.436063	-204.285585	36.709756	38.306258	1.000000	375.225000	6.782000	375.464000	6.627000	13.169000	21.759000	6.000000	49.259339
73.000000	53.960902	259.377354	36.678968	38.413222	1.000000	373.154000	33.129000	373.408000	32.802000	13.169000	21.713000	15.500000	49.238786
74.000000	53.886354	302.465121	36.645911	38.500739	1.000000	373.005000	34.183000	373.266000	33.857000	13.169000	21.747000	15.500000	49.193207
75.000000	53.885706	361.018631	36.595030	38.635255	1.000000	373.788000	24.105000	374.092000	23.852000	13.169000	21.753000	14.500000	49.156963
76.000000	53.436474	-259.779713	36.566834	38.678689	1.000000	376.407000	-6.583000	376.679000	-6.636000	13.169000	21.650000	5.000000	49.140172
77.000000	52.618069	-274.242343	36.544797	38.719855	1.000000	375.595000	6.064000	375.831000	5.926000	13.169000	21.753000	4.500000	49.146135
78.000000	52.129942	331.990625	36.528268	38.746434	1.000000	373.402000	33.093000	373.655000	32.773000	13.169000	21.785000	16.000000	49.124481
79.000000	52.130267	310.100655	36.503638	38.776578	1.000000	373.454000	31.438000	373.711000	31.115000	13.169000	21.671000	15.000000	49.114754
80.000000	52.080352	278.671675	36.486462	38.819364	1.000000	373.540000	30.167000	373.793000	29.837000	13.168700	21.677000	14.500000	49.096081
81.000000	51.968530	242.959877	36.479332	38.902019	1.000000	373.217000	34.148000	373.477000	33.785000	13.168300	21.797000	14.500000	49.074034
82.000000	51.970151	407.026506	36.471554	38.974301	1.000000	371.430000	55.045000	371.708000	54.530000	13.168700	21.876000	21.000000	49.086354
83.000000	52.626820	992.323855	36.467341	39.010604	1.000000	369.001000	82.175000	369.306000	81.443000	13.167700	21.756000	27.500000	49.066188
84.000000	53.491899	1056.631095	36.468313	39.031673	1.000000	367.275000	100.838000	367.539000	99.948000	13.167300	21.761000	32.500000	49.094199
85.000000	54.769908	1447.687582	36.471554	39.041721	1.000000	364.520000	130.872000	364.785000	129.755000	13.167700	21.695000	44.000000	49.079999
86.000000	56.459875	1720.036417	36.475443	39.036211	1.000000	361.904000	158.327000	362.201000	156.989000	13.167000	21.656000	57.500000	49.109890
87.000000	58.414650	1918.928364	36.484517	39.041397	1.000000	360.619000	168.697000	360.900000	167.308000	13.166700	21.750000	63.500000	49.150609
88.000000	60.392438	1901.818679	36.505258	39.038480	1.000000	360.145000	169.734000	360.417000	168.297000	13.166000	21.667000	66.000000	49.158454
89.000000	62.315774	1881.875406	36.517898	39.056632	1.000000	359.537000	173.490000	359.837000	172.020000	13.166300	21.725000	63.000000	49.167791
90.000000	64.082884	1750.859798	36.535722	39.070570	1.000000	359.490000	170.763000	359.790000	169.342000	13.167000	21.616000	63.500000	49.219724
91.000000	65.778687	1772.100893	36.551278	39.109466	1.000000	358.719000	176.499000	359.013000	175.005000	13.166700	21.734000	66.000000	49.258948
92.000000	67.498477	1830.113746	36.581742	39.192120	1.000000	357.660000	185.944000	357.940000	184.379000	13.166000	21.662000	72.500000	49.299663
93.000000	69.251327	1864.030286	36.609613	39.226479	1.000000	359.350000	162.005000	359.636000	160.618000	13.166600	21.726000	66.000000	49.323196
94.000000	70.369547	1035.303500	36.631975	39.166838	1.000000	365.320000	88.913000	365.617000	88.086000	13.168000	21.792000	26.000000	49.385950
95.000000	70.435668	602.305840	36.659198	39.106224	1.000000	367.075000	71.271000	367.362000	70.582000	13.168000	21.759000	26.000000	49.378106
96.000000	70.510540	605.853227	36.704894	39.113680	1.000000	369.545000	42.620000	369.810000	42.141000	13.168300	21.789000	25.500000	49.435996
97.000000	70.328059	234.783584	36.747673	39.103631	1.000000	375.410000	-26.691000	375.649000	-26.598000	13.168400	22.401000	0.000000	49.431134
98.000000	68.675686	-778.423865	36.783323	39.121783	1.000000	376.714000	-35.009000	376.950000	-34.848000	13.167300	23.504000	0.000000	49.450192
99.000000	67.191209	-678.871688	36.817676	39.137990	1.000000	377.184000	-36.049000	377.376000	-35.885000	13.168000	22.860000	0.000000	49.431134
100.000000	65.555368	-758.470193	36.859158	39.141879	1.000000	378.662000	-50.451000	378.876000	-50.135000	13.168600	22.803000	0.000000	49.428152
101.000000	63.322819	-1260.511507	36.926892	39.143176	1.000000	379.893000	-61.530000	380.105000	-61.101000	13.169700	22.391000	0.000000	49.412464
102.000000	61.848391	-590.236743	36.966106	39.151928	1.000000	377.403000	-28.758000	377.637000	-28.591000	13.169000	21.968000	0.000000	49.393406
103.000000	60.520141	-588.399189	37.003052	39.158410	1.000000	377.704000	-30.683000	377.927000	-30.505000	13.168700	22.575000	0.000000	49.388932
104.000000	59.177307	-624.588189	37.046155	39.123728	1.000000	377.885000	-31.036000	378.121000	-30.843000	13.168300	22.774000	0.000000	49.352694
105.000000	57.687322	-721.697500	37.111620	39.077052	1.000000	378.198000	-33.154000	378.445000	-32.985000	13.168700	22.866000	0.000000	49.330652
106.000000	56.141588	-826.200262	37.157964	39.054363	1.000000	379.424000	-46.228000	379.661000	-45.932000	13.168300	22.770000	0.000000	49.313472
107.000000	54.055545	-1150.560931	37.196206	39.051446	1.000000	380.114000	-51.413000	380.353000	-51.063000	13.169000	22.428000	0.000000	49.283585
108.000000	52.345159	-913.300309	37.233152	39.049825	1.000000	379.323000	-40.101000	379.580000	-39.845000	13.168700	22.628000	0.000000	49.274249
109.000000	50.866843	-780.542456	37.291811	39.062142	1.000000	378.977000	-34.713000	379.209000	-34.510000	13.168000	22.607000	0.000000	49.263034
110.000000	49.401817	-781.299096	37.325191	39.142528	1.000000	378.997000	-33.556000	379.208000	-33.352000	13.168600	22.454000	0.000000	49.250715
111.000000	48.013608	-770.598047	37.351442	39.173645	1.000000	379.879000	-43.461000	380.121000	-43.193000	13.169700	22.566000	0.000000	49.247344
112.000000	46.406617	-1137.330543	37.374128	39.206382	1.000000	382.186000	-69.644000	382.398000	-69.167000	13.167500	24.165000	0.000000	49.236517
113.000000	43.602649	-1677.571423	37.397138	39.243982	1.000000	383.068000	-76.686000	383.305000	-76.149000	13.164000	27.150000	0.000000	49.244361
114.000000	40.967873	-1771.286693	37.417880	39.325664	1.000000	382.304000	-64.850000	382.537000	-64.374000	13.164000	26.773000	0.000000	49.239499
115.000000	38.705187	-1102.784531	37.427278	39.376878	1.000000	380.258000	-38.331000	380.504000	-38.050000	13.164300	26.088000	0.000000	49.263034
116.000000	37.083937	-905.301546	37.430519	39.418691	1.000000	379.053000	-23.091000	379.304000	-22.968000	13.165300	25.729000	0.000000	49.277232
117.000000	35.861355	-719.665381	37.432139	39.484491	1.000000	379.607000	-29.943000	379.831000	-29.753000	13.166000	25.613000	0.000000	49.310102
118.000000	34.390172	-1148.917942	37.428574	39.539594	1.000000	381.900000	-57.097000	382.116000	-56.707000	13.165700	25.920000	0.000000	49.327282
119.000000	30.594075	-2986.905274	37.421120	39.585297	1.000000	382.397000	-59.532000	382.636000	-59.116000	13.164700	26.962000	0.000000	49.325403
120.000000	26.210996	-3320.540820	37.413018	39.634890	1.000000	379.185000	-19.085000	379.442000	-18.989000	13.163700	27.691000	0.000000	49.344461
121.000000	20.857827	-4496.362979	37.399083	39.678324	1.000000	377.960000	-5.913000	378.216000	-5.919000	13.163900	26.813000	0.000000	49.369485
122.000000	15.164333	-3140.157529	37.375749	39.682214	1.000000	378.672000	-15.270000	378.927000	-15.211000	13.165700	25.200000	0.000000	49.367994
123.000000	10.865527	-3014.014642	37.361813	39.640400	1.000000	378.863000	-16.495000	379.089000	-16.439000	13.164700	25.844000	0.000000	49.397880
124.000000	6.752767	-3014.057879	37.346257	39.617386	1.000000	377.833000	-3.844000	378.070000	-3.877000	13.162800	27.833000	0.000000	49.413567
125.000000	3.923198	-1140.919178	37.331997	39.594373	1.000000	377.156000	3.797000	377.389000	3.687000	13.160000	29.772000	0.000000	49.400862
126.000000	2.369690	-1097.574526	37.313524	39.554180	1.000000	377.024000	4.806000	377.264000	4.696000	13.160300	29.885000	0.000000	49.400862
127.000000	1.230084	-687.691946	37.298292	39.493891	1.000000	377.007000	4.743000	377.253000	4.639000	13.160700	29.908000	0.000000	49.427377
128.000000	0.201002	-569.526431	37.285977	39.457912	1.000000	377.030000	4.112000	377.290000	4.019000	13.159100	30.774000	0.000000	49.440082
129.000000	-0.000601	-3.603069	37.275282	39.418043	1.000000	377.088000	3.548000	377.348000	3.445000	13.154000	35.629000	0.000000	49.432238
130.000000	0.000048	-3.149085	37.261671	39.358726	1.000000	377.078000	3.668000	377.335000	3.561000	13.150600	38.949000	0.000000	49.431852
131.000000	-0.000925	-3.084230	37.250652	39.314968	1.000000	377.126000	3.327000	377.376000	3.230000	13.159900	30.978000	0.000000	49.413567
132.000000	-0.004166	-2.997757	37.243846	39.282878	1.000000	377.140000	3.211000	377.396000	3.118000	13.161700	29.408000	0.000000	49.408706
133.000000	-0.001573	-2.889666	37.237041	39.258568	1.000000	377.146000	3.126000	377.413000	3.032000	13.161000	29.225000	0.000000	49.403845
134.000000	-0.002221	-2.889666	37.230235	39.235879	1.000000	377.133000	3.503000	377.381000	3.420000	13.161300	28.959000	0.000000	49.385174
135.000000	0.185769	43.030058	37.226994	39.202817	1.000000	376.662000	9.390000	376.891000	9.267000	13.162000	28.396000	0.000000	49.348936
136.000000	2.638386	2923.988209	37.224725	39.198279	1.000000	374.678000	33.354000	374.919000	33.058000	13.162000	28.439000	28.500000	49.332862
137.000000	7.800972	4371.287577	37.224077	39.197955	1.000000	371.049000	75.510000	371.278000	74.870000	13.162300	27.872000	45.000000	49.325403
138.000000	13.806593	4730.744909	37.222133	39.193741	1.000000	367.207000	117.888000	367.469000	116.887000	13.163900	25.395000	55.500000	49.337722
139.000000	19.855323	4581.861425	37.223429	39.199900	1.000000	364.152000	149.241000	364.448000	148.000000	13.165700	23.933000	62.000000	49.369099
140.000000	25.603595	4357.638677	37.224401	39.203789	1.000000	361.248000	178.276000	361.567000	176.784000	13.164700	23.906000	68.500000	49.433343
141.000000	30.951903	4213.946725	37.223753	39.215458	1.000000	357.251000	220.441000	357.591000	218.542000	13.164000	23.942000	83.500000	49.524483
142.000000	36.732266	4532.868112	37.223753	39.235879	1.000000	354.276000	247.721000	354.610000	245.600000	13.163700	24.016000	85.000000	49.639145
143.000000	41.858232	3949.945656	37.226022	39.282554	1.000000	356.750000	211.533000	357.055000	209.691000	13.163300	24.462000	68.500000	49.761255
144.000000	44.833335	2006.099082	37.229263	39.331175	1.000000	363.349000	129.902000	363.622000	128.695000	13.164300	24.499000	39.000000	49.894563
145.000000	46.872378	1722.091309	37.230559	39.384981	1.000000	364.876000	111.485000	365.159000	110.412000	13.165000	24.535000	30.500000	49.987166
146.000000	48.355555	1257.469583	37.228614	39.448188	1.000000	366.937000	86.896000	367.212000	86.001000	13.165000	24.549000	25.000000	50.051382
147.000000	49.371026	907.402831	37.226994	39.530842	1.000000	367.595000	79.807000	367.853000	78.978000	13.165900	23.708000	22.000000	50.090584
148.000000	50.491835	1215.960795	37.222133	39.675407	1.000000	366.373000	94.181000	366.673000	93.255000	13.168000	21.773000	25.000000	50.115596
149.000000	51.640196	1208.087320	37.214355	39.769406	1.000000	367.424000	80.691000	367.709000	79.862000	13.168300	21.621000	22.000000	50.087217
150.000000	52.463463	828.213877	37.205280	39.861785	1.000000	369.623000	53.960000	369.882000	53.357000	13.169000	21.737000	17.500000	50.041665
151.000000	52.938300	708.359750	37.189724	39.971343	1.000000	369.217000	60.097000	369.488000	59.423000	13.169000	21.751000	17.000000	50.002462
152.000000	53.380725	651.666439	37.166390	40.143135	1.000000	370.067000	50.110000	370.320000	49.504000	13.169300	21.653000	15.000000	49.968116
153.000000	53.517828	332.228560	37.148566	40.281865	1.000000	371.295000	36.367000	371.552000	35.887000	13.169700	21.379000	12.000000	49.916211
154.000000	53.504539	342.308329	37.128472	40.398878	1.000000	370.830000	43.302000	371.092000	42.780000	13.169000	21.585000	12.500000	49.886337
155.000000	53.601776	509.597902	37.108055	40.516215	1.000000	366.941000	90.590000	367.231000	89.730000	13.168700	21.630000	21.000000	49.844147
156.000000	54.901501	1784.451877	37.063980	40.701620	1.000000	362.332000	142.562000	362.625000	141.286000	13.168000	21.544000	37.500000	49.784395
157.000000	56.800526	1651.987052	37.035460	40.825116	1.000000	366.014000	91.758000	366.317000	90.851000	13.168300	21.622000	20.000000	49.742202
158.000000	57.452010	868.597863	37.008885	40.915226	1.000000	367.295000	77.502000	367.596000	76.702000	13.169000	21.579000	20.000000	49.718676
159.000000	58.138823	890.790671	36.981986	40.975191	1.000000	367.240000	77.924000	367.517000	77.167000	13.169000	21.683000	18.000000	49.695149
160.000000	58.614633	771.715232	36.945689	41.055253	1.000000	366.453000	86.782000	366.729000	85.953000	13.169000	21.574000	27.000000	49.693273
161.000000	59.782117	1292.294571	36.910688	41.117811	1.000000	366.784000	80.037000	367.062000	79.232000	13.168700	21.609000	20.500000	49.701115
162.000000	60.276402	693.478026	36.891891	41.146983	1.000000	368.288000	62.684000	368.541000	62.017000	13.168300	21.575000	16.500000	49.652568
163.000000	60.508149	538.041891	36.877631	41.168376	1.000000	369.535000	48.265000	369.789000	47.738000	13.169300	21.583000	14.000000	49.683938
164.000000	60.521114	346.829084	36.863696	41.203383	1.000000	372.117000	18.005000	372.351000	17.715000	13.170000	21.508000	6.000000	49.677588
165.000000	59.745492	-276.879773	36.853649	41.231907	1.000000	375.101000	-14.916000	375.324000	-14.957000	13.170000	21.528000	0.000000	49.674604
166.000000	58.528740	-566.153980	36.852353	41.241306	1.000000	374.838000	-8.094000	375.071000	-8.173000	13.169700	21.622000	4.000000	49.679079
167.000000	57.853920	228.510766	36.853325	41.248762	1.000000	371.837000	30.138000	372.080000	29.770000	13.169000	21.613000	15.500000	49.655552
168.000000	57.657827	235.216192	36.859807	41.250706	1.000000	371.932000	28.582000	372.185000	28.233000	13.169300	21.666000	12.000000	49.654060
169.000000	57.303238	206.296341	36.876659	41.247141	1.000000	371.307000	35.730000	371.561000	35.375000	13.169700	21.583000	19.500000	49.658535
170.000000	57.485394	577.279455	36.893511	41.221534	1.000000	372.321000	22.661000	372.558000	22.374000	13.169300	21.592000	9.500000	49.654060
171.000000	56.732137	-275.517821	36.911336	41.222182	1.000000	372.715000	20.041000	372.960000	19.717000	13.169400	21.718000	17.000000	49.644726
172.000000	56.909431	593.199437	36.928836	41.240658	1.000000	370.644000	44.309000	370.918000	43.833000	13.168300	21.635000	14.500000	49.619322
173.000000	56.607998	79.823372	36.961569	41.242603	1.000000	372.723000	18.941000	372.983000	18.677000	13.169300	21.643000	12.500000	49.616338
174.000000	56.363287	226.607291	36.989116	41.243900	1.000000	371.839000	30.968000	372.096000	30.590000	13.169700	21.583000	14.500000	49.599160
175.000000	56.081950	159.726081	37.010830	41.244224	1.000000	371.168000	38.911000	371.424000	38.516000	13.169300	21.599000	20.500000	49.580107
176.000000	56.310131	573.688807	37.031247	41.254596	1.000000	370.354000	47.740000	370.612000	47.276000	13.169700	21.605000	20.000000	49.594301
177.000000	56.373335	332.682798	37.060739	41.240982	1.000000	371.397000	35.131000	371.639000	34.730000	13.169300	21.555000	14.000000	49.580107
178.000000	56.204144	317.217058	37.086665	41.217969	1.000000	371.262000	37.236000	371.523000	36.810000	13.170000	21.553000	16.500000	49.551719
179.000000	56.158767	336.770945	37.106111	41.211162	1.000000	371.212000	37.548000	371.458000	37.157000	13.169700	21.618000	16.500000	49.539400
180.000000	56.095563	334.910730	37.126204	41.192686	1.000000	371.891000	29.186000	372.148000	28.815000	13.169300	21.581000	16.500000	49.546860
181.000000	55.974342	202.554281	37.147269	41.176155	1.000000	374.020000	3.398000	374.261000	3.197000	13.170000	21.608000	7.000000	49.511010
182.000000	55.257386	-160.184290	37.181622	41.144066	1.000000	373.955000	7.105000	374.187000	6.901000	13.170000	21.681000	6.500000	49.534541
183.000000	54.585159	-105.511655	37.201715	41.151845	1.000000	374.140000	5.391000	374.388000	5.227000	13.169700	21.824000	24.000000	49.512502
184.000000	54.441897	-430.239855	37.218568	41.158004	1.000000	375.460000	-10.302000	375.683000	-10.332000	13.169300	22.046000	0.000000	49.513994
185.000000	52.784343	-529.835270	37.234772	41.144066	1.000000	371.866000	35.929000	372.114000	35.575000	13.170000	21.308000	50.000000	49.506151
186.000000	54.381935	1281.198164	37.260051	41.120080	1.000000	368.213000	73.361000	368.494000	72.669000	13.170000	21.371000	24.000000	49.471793
187.000000	55.152371	1112.178019	37.275931	41.118459	1.000000	366.257000	95.792000	366.514000	94.893000	13.169700	21.390000	32.000000	49.504659
188.000000	56.268320	1230.777636	37.286625	41.120080	1.000000	364.715000	111.836000	364.977000	110.816000	13.168700	21.359000	34.500000	49.507643
189.000000	57.548922	1420.108781	37.300237	41.109707	1.000000	364.914000	106.658000	365.195000	105.721000	13.168300	21.462000	39.000000	49.506151
190.000000	58.313524	516.260068	37.316441	41.091556	1.000000	367.335000	75.518000	367.595000	74.839000	13.169000	21.478000	29.500000	49.506151
191.000000	59.246669	1168.482012	37.325840	41.066921	1.000000	365.111000	101.926000	365.380000	101.025000	13.169000	21.489000	22.500000	49.540509
192.000000	59.591210	656.403499	37.336858	41.049742	1.000000	365.078000	102.037000	365.359000	101.118000	13.168700	21.562000	33.500000	49.570389
193.000000	60.724986	1307.046523	37.344961	41.040342	1.000000	364.504000	105.440000	364.773000	104.523000	13.168000	21.559000	31.000000	49.587567
194.000000	61.508063	874.524597	37.351442	41.017653	1.000000	366.591000	78.927000	366.875000	78.203000	13.168300	21.572000	25.000000	49.595028
195.000000	62.019851	807.816394	37.358572	40.990101	1.000000	366.889000	75.688000	367.159000	74.974000	13.169300	21.393000	24.500000	49.595410
196.000000	62.376060	628.630050	37.361489	40.942129	1.000000	368.056000	61.007000	368.332000	60.441000	13.169700	21.445000	19.500000	49.623798
197.000000	62.473297	517.839088	37.364406	40.876654	1.000000	368.400000	57.510000	368.681000	56.927000	13.169000	21.493000	22.000000	49.604745
198.000000	62.678465	524.284950	37.368943	40.803399	1.000000	369.043000	50.500000	369.294000	49.949000	13.169000	21.390000	14.000000	49.603253
199.000000	62.377357	238.201188	37.376721	40.717179	1.000000	369.176000	49.925000	369.418000	49.399000	13.169000	21.469000	20.500000	49.626781
200.000000	62.580905	619.372234	37.383851	40.648786	1.000000	367.900000	64.412000	368.179000	63.777000	13.169000	21.463000	23.000000	49.632750
201.000000	62.969851	738.512546	37.390332	40.579745	1.000000	369.245000	46.656000	369.533000	46.162000	13.169000	21.442000	15.000000	49.599887
202.000000	62.776998	325.869221	37.399731	40.519132	1.000000	369.783000	41.636000	370.040000	41.190000	13.169000	21.561000	15.500000	49.623415
203.000000	62.680410	467.807953	37.414315	40.435181	1.000000	368.181000	61.950000	368.440000	61.369000	13.169000	21.571000	18.500000	49.592044
204.000000	62.726435	439.299075	37.425009	40.377809	1.000000	366.233000	84.266000	366.516000	83.491000	13.169000	21.486000	33.000000	49.584201
205.000000	63.796036	1364.907921	37.434732	40.312658	1.000000	365.598000	88.369000	365.888000	87.533000	13.169000	21.482000	19.500000	49.568515
206.000000	63.850164	430.279195	37.444779	40.244913	1.000000	368.327000	56.021000	368.608000	55.445000	13.169000	21.440000	19.000000	49.562164
207.000000	63.981434	603.041274	37.464224	40.142486	1.000000	367.876000	61.363000	368.145000	60.773000	13.169000	21.452000	21.000000	49.577850
208.000000	64.144791	589.933245	37.485289	40.035522	1.000000	367.835000	61.634000	368.116000	61.044000	13.169000	21.507000	20.500000	49.538634
209.000000	64.302638	589.219441	37.500521	39.966481	1.000000	367.492000	65.800000	367.764000	65.174000	13.168700	21.519000	20.500000	49.565149
210.000000	64.496138	646.193944	37.517697	39.896791	1.000000	365.695000	87.110000	365.986000	86.316000	13.168000	21.406000	24.500000	49.558798
211.000000	65.066268	1030.155460	37.541356	39.792744	1.000000	364.343000	100.959000	364.613000	100.053000	13.168600	21.390000	35.500000	49.537142
212.000000	66.043495	1068.744132	37.565338	39.684483	1.000000	366.323000	73.822000	366.602000	73.118000	13.169700	21.374000	19.000000	49.527807
213.000000	66.057432	500.513131	37.583811	39.594373	1.000000	369.137000	40.691000	369.413000	40.241000	13.168400	22.091000	28.000000	49.530791
214.000000	66.152399	-116.255940	37.599043	39.514311	1.000000	375.188000	-32.511000	375.408000	-32.371000	13.167900	22.867000	0.000000	49.528918
215.000000	64.139929	-594.106415	37.613626	39.421284	1.000000	374.031000	-11.531000	374.260000	-11.516000	13.169700	21.418000	11.000000	49.550955
216.000000	63.607722	211.833725	37.640201	39.254030	1.000000	369.573000	43.608000	369.823000	43.177000	13.169300	21.290000	22.000000	49.555813
217.000000	63.703013	409.773568	37.650896	39.156141	1.000000	368.919000	49.736000	369.175000	49.275000	13.169700	21.196000	19.500000	49.560290
218.000000	63.786961	626.661683	37.659646	39.071542	1.000000	367.807000	63.823000	368.074000	63.252000	13.169000	21.245000	16.000000	49.558798
219.000000	63.463163	196.843854	37.667424	38.982080	1.000000	367.770000	64.657000	368.045000	64.062000	13.169000	21.499000	23.000000	49.560290
220.000000	63.787933	753.048184	37.673906	38.835571	1.000000	366.809000	74.100000	367.104000	73.448000	13.169000	21.520000	26.500000	49.561783
221.000000	63.996667	464.779695	37.675851	38.716937	1.000000	368.697000	50.545000	368.963000	50.068000	13.169300	21.451000	21.000000	49.558798
222.000000	63.790850	181.269963	37.673258	38.624559	1.000000	370.268000	30.869000	370.545000	30.572000	13.170000	21.275000	23.500000	49.527425
223.000000	63.949021	674.378372	37.670989	38.545146	1.000000	370.650000	25.866000	370.926000	25.601000	13.170000	21.231000	8.000000	49.533396
224.000000	63.280683	49.584069	37.662239	38.424567	1.000000	368.823000	51.311000	369.113000	50.845000	13.169700	21.216000	25.500000	49.528917
225.000000	63.616473	754.994922	37.653813	38.328299	1.000000	367.228000	68.607000	367.509000	67.989000	13.169300	21.251000	27.000000	49.524060
226.000000	63.802194	487.102277	37.644414	38.263148	1.000000	368.748000	48.661000	369.014000	48.202000	13.169700	21.330000	20.500000	49.521074
227.000000	63.850164	537.003631	37.638257	38.190865	1.000000	368.596000	50.606000	368.870000	50.150000	13.169000	21.427000	19.500000	49.481857
228.000000	63.703013	364.976995	37.626266	38.111128	1.000000	369.071000	44.657000	369.331000	44.257000	13.169300	21.478000	21.500000	49.497544
229.000000	63.896514	754.735357	37.613626	37.988605	1.000000	370.179000	30.905000	370.427000	30.580000	13.170000	21.483000	4.000000	49.486335
230.000000	63.060929	-69.128085	37.605200	37.903033	1.000000	370.477000	30.454000	370.718000	30.148000	13.169700	21.551000	20.000000	49.476999
231.000000	63.129318	640.937754	37.593533	37.828157	1.000000	366.421000	78.932000	366.699000	78.250000	13.169000	21.512000	29.000000	49.476999
232.000000	63.664119	877.596116	37.583487	37.761386	1.000000	366.621000	73.916000	366.877000	73.254000	13.169300	21.452000	23.000000	49.484842
233.000000	63.836875	587.575530	37.567282	37.683917	1.000000	367.073000	67.622000	367.349000	66.997000	13.169400	21.383000	23.000000	49.447117
234.000000	64.129881	810.996065	37.558532	37.638214	1.000000	365.352000	87.975000	365.639000	87.187000	13.168000	21.368000	29.000000	49.479984
235.000000	64.618008	846.989077	37.551402	37.598994	1.000000	365.990000	78.030000	366.273000	77.339000	13.168600	21.483000	29.000000	49.448610
236.000000	65.020891	742.881890	37.544596	37.553615	1.000000	369.207000	38.549000	369.488000	37.902000	13.170000	21.463000	8.000000	49.470648
237.000000	64.247861	-184.893986	37.537143	37.440491	1.000000	371.394000	14.715000	371.660000	13.942000	13.169700	21.427000	13.500000	49.473633
238.000000	64.193409	724.366256	37.532281	37.367561	1.000000	370.148000	30.384000	370.416000	30.083000	13.169300	21.463000	0.500000	49.481477
239.000000	63.076811	-448.680247	37.525476	37.308568	1.000000	371.570000	15.462000	371.828000	15.255000	13.169700	21.445000	24.000000	49.484463
240.000000	63.398663	868.403189	37.520614	37.244713	1.000000	366.315000	78.406000	366.603000	77.731000	13.169000	21.505000	16.000000	49.448610
241.000000	63.228824	457.403726	37.510244	37.163355	1.000000	367.582000	62.937000	367.842000	62.351000	13.169000	21.397000	27.000000	49.453088
242.000000	63.507244	523.138539	37.503438	37.099501	1.000000	368.786000	46.431000	369.049000	45.992000	13.169300	21.387000	19.500000	49.464297
243.000000	63.424593	405.274443	37.500197	37.075515	1.000000	369.509000	38.121000	369.782000	37.767000	13.170000	21.392000	16.500000	49.475126
244.000000	63.071301	103.140946	37.493391	37.032729	1.000000	370.135000	31.495000	370.403000	31.198000	13.170000	21.462000	17.000000	49.462425
245.000000	62.911185	327.664544	37.492743	36.995129	1.000000	368.819000	48.063000	369.068000	47.658000	13.169700	21.527000	18.500000	49.451596
246.000000	62.902109	509.706054	37.489178	36.934191	1.000000	367.424000	64.410000	367.700000	63.846000	13.169000	21.444000	23.000000	49.459060
247.000000	63.128994	690.082051	37.489502	36.894971	1.000000	367.104000	67.329000	367.385000	66.705000	13.169000	21.421000	27.000000	49.457567
248.000000	63.361389	423.465616	37.494039	36.870013	1.000000	368.857000	44.696000	369.108000	44.277000	13.169300	21.454000	20.000000	49.462425
249.000000	63.302399	401.164666	37.494363	36.836951	1.000000	370.649000	23.037000	370.876000	22.782000	13.170000	21.529000	12.500000	49.443752
250.000000	62.734214	-41.824194	37.500845	36.797406	1.000000	371.398000	16.048000	371.627000	15.829000	13.169700	21.413000	11.500000	49.415362
251.000000	62.331007	284.511885	37.507651	36.762075	1.000000	368.579000	50.958000	368.850000	50.476000	13.169000	21.438000	22.000000	49.426192
252.000000	62.666149	825.466813	37.512836	36.725772	1.000000	367.082000	67.782000	367.387000	67.191000	13.169000	21.489000	27.000000	49.451217
253.000000	62.670038	167.750961	37.518346	36.696600	1.000000	369.848000	34.293000	370.115000	33.949000	13.169000	21.507000	12.500000	49.409011
254.000000	62.186773	127.258846	37.533254	36.669048	1.000000	368.566000	51.108000	368.832000	50.641000	13.169000	21.497000	24.000000	49.399674
255.000000	62.425651	614.959630	37.550106	36.613621	1.000000	369.009000	43.409000	369.283000	42.988000	13.169300	21.478000	20.000000	49.396310
256.000000	62.318691	248.605412	37.562097	36.568891	1.000000	369.470000	38.474000	369.730000	38.102000	13.169700	21.471000	17.000000	49.410504
257.000000	62.233447	504.255191	37.573764	36.536477	1.000000	368.399000	51.553000	368.668000	51.101000	13.169000	21.526000	19.500000	49.391452
258.000000	62.184180	367.702426	37.596774	36.461277	1.000000	368.834000	46.506000	369.121000	46.096000	13.169300	21.540000	18.500000	49.394816
259.000000	61.987114	339.193551	37.611682	36.388671	1.000000	367.920000	57.889000	368.197000	57.389000	13.169700	21.531000	23.500000	49.386595
260.000000	62.363095	773.488926	37.627562	36.321899	1.000000	366.768000	70.158000	367.053000	69.541000	13.169000	21.498000	27.500000	49.367920
261.000000	62.692079	554.718937	37.639229	36.250589	1.000000	369.622000	33.877000	369.915000	33.540000	13.169000	21.464000	15.000000	49.382115
262.000000	62.232150	72.447405	37.650572	36.169555	1.000000	370.178000	28.653000	370.420000	28.376000	13.169000	21.459000	17.500000	49.382115
263.000000	62.231502	570.011637	37.669045	36.077177	1.000000	368.289000	51.810000	368.556000	51.357000	13.169000	21.489000	22.000000	49.383608
264.000000	62.269748	381.740561	37.678767	36.035363	1.000000	368.932000	44.691000	369.198000	44.280000	13.169000	21.534000	13.500000	49.388465
265.000000	61.762174	5.458049	37.688166	35.976371	1.000000	367.370000	64.972000	367.647000	64.389000	13.168700	21.563000	28.000000	49.379128
266.000000	62.420789	997.861242	37.698212	35.924185	1.000000	365.203000	88.294000	365.473000	87.520000	13.168300	21.506000	27.000000	49.380621
267.000000	62.746207	598.433996	37.712472	35.829537	1.000000	368.206000	50.465000	368.467000	49.978000	13.169000	21.544000	18.000000	49.399296
268.000000	62.443153	99.247474	37.720898	35.773786	1.000000	369.036000	41.029000	369.288000	40.650000	13.169000	21.558000	24.500000	49.385101
269.000000	62.776350	615.262456	37.724787	35.726786	1.000000	368.684000	44.267000	368.943000	43.863000	13.169300	21.433000	17.000000	49.386595
270.000000	62.491771	154.578045	37.731917	35.665849	1.000000	370.250000	26.270000	370.469000	26.014000	13.169700	21.403000	14.500000	49.380621
271.000000	62.187097	241.142923	37.740667	35.578656	1.000000	370.120000	28.718000	370.363000	28.439000	13.169300	21.486000	15.500000	49.382115
272.000000	61.906408	214.970133	37.745853	35.506698	1.000000	369.524000	36.637000	369.783000	36.286000	13.170000	21.506000	15.500000	49.388088
273.000000	61.705777	402.916729	37.746825	35.446733	1.000000	368.301000	51.584000	368.575000	51.099000	13.170000	21.532000	21.500000	49.382115
274.000000	61.842880	524.090277	37.748770	35.398437	1.000000	368.116000	53.256000	368.379000	52.763000	13.169700	21.551000	21.500000	49.375764
275.000000	61.794586	389.657289	37.751686	35.339444	1.000000	368.556000	47.264000	368.829000	46.822000	13.169000	21.497000	20.500000	49.338036
276.000000	61.842880	470.079146	37.749094	35.244148	1.000000	368.036000	53.435000	368.313000	52.932000	13.169000	21.471000	18.500000	49.372400
277.000000	61.937200	637.758084	37.747149	35.198769	1.000000	367.177000	63.105000	367.444000	62.558000	13.169000	21.593000	25.500000	49.330192
278.000000	62.279796	696.571175	37.745529	35.158901	1.000000	368.218000	49.195000	368.490000	48.719000	13.169000	21.573000	18.000000	49.342516
279.000000	62.134914	315.962495	37.740343	35.108335	1.000000	368.207000	49.991000	368.504000	49.492000	13.169300	21.525000	21.500000	49.359698
280.000000	62.281417	588.592159	37.734510	35.042860	1.000000	367.445000	58.448000	367.723000	57.931000	13.169700	21.566000	22.500000	49.347374
281.000000	62.472972	576.241195	37.733862	35.012067	1.000000	367.615000	55.754000	367.874000	55.244000	13.169000	21.595000	22.500000	49.337659
282.000000	62.629523	565.772076	37.729649	34.983543	1.000000	367.489000	57.051000	367.769000	56.508000	13.169000	21.633000	21.000000	49.350361
283.000000	62.689161	508.278447	37.728028	34.960205	1.000000	365.986000	75.245000	366.266000	74.580000	13.168700	21.631000	33.000000	49.342516
284.000000	63.443716	1012.526667	37.720898	34.886951	1.000000	364.739000	87.750000	365.019000	86.980000	13.168000	21.625000	29.000000	49.344010
285.000000	63.955828	888.930455	37.715713	34.837034	1.000000	364.284000	91.888000	364.558000	91.097000	13.168300	21.597000	31.000000	49.342517
286.000000	64.568418	930.850204	37.712472	34.801055	1.000000	364.005000	94.317000	364.274000	93.483000	13.168700	21.480000	31.000000	49.353348
287.000000	65.152485	911.015111	37.708259	34.780310	1.000000	363.983000	93.024000	364.279000	92.201000	13.168300	21.553000	31.000000	49.344010
288.000000	65.698629	897.777296	37.703074	34.761186	1.000000	363.679000	95.868000	363.983000	95.017000	13.168700	21.539000	27.500000	49.367542
289.000000	66.081093	869.030471	37.698537	34.725531	1.000000	363.469000	97.590000	363.750000	96.723000	13.168000	21.568000	35.000000	49.369036
290.000000	66.763369	938.615525	37.693351	34.695063	1.000000	364.102000	87.684000	364.365000	86.915000	13.168300	21.702000	31.000000	49.384725
291.000000	67.215518	779.718485	37.689138	34.679504	1.000000	364.565000	81.714000	364.829000	80.988000	13.169000	21.569000	28.000000	49.392568
292.000000	67.511117	736.349505	37.683305	34.668483	1.000000	364.084000	87.445000	364.346000	86.657000	13.168700	21.532000	28.000000	49.394062
293.000000	68.043325	1037.639585	37.682008	34.654546	1.000000	363.621000	91.676000	363.902000	90.851000	13.168000	21.575000	31.000000	49.394062
294.000000	68.254328	613.856479	37.681036	34.626022	1.000000	365.092000	73.411000	365.358000	72.740000	13.168300	21.592000	26.500000	49.412737
295.000000	68.521405	749.608948	37.681036	34.599767	1.000000	364.334000	82.345000	364.611000	81.622000	13.169000	21.517000	29.000000	49.412737
296.000000	68.860112	798.515316	37.677147	34.578698	1.000000	362.677000	101.927000	362.950000	101.068000	13.168400	21.476000	30.000000	49.419088
297.000000	69.357315	1013.283732	37.674878	34.544664	1.000000	357.422000	164.188000	357.711000	162.809000	13.166700	21.518000	66.000000	49.434775
298.000000	71.105303	2089.549375	37.675202	34.532671	1.000000	352.890000	214.282000	353.197000	212.470000	13.166000	21.438000	75.500000	49.428425
299.000000	72.244592	1174.387118	37.670341	34.522622	1.000000	354.929000	184.134000	355.223000	182.558000	13.166300	21.477000	99.500000	49.451956
300.000000	74.362405	2188.184265	37.672934	34.501878	1.000000	360.712000	107.657000	360.980000	106.651000	13.167600	21.506000	0.000000	49.458307
301.000000	73.021836	-487.809334	37.672286	34.476595	1.000000	370.565000	-3.140000	370.823000	-3.236000	13.169000	21.611000	8.000000	49.476981
302.000000	72.249129	184.925502	37.671638	34.457147	1.000000	367.709000	35.291000	367.994000	34.919000	13.169000	21.654000	16.500000	49.531885
303.000000	71.722431	173.807474	37.672286	34.431864	1.000000	366.446000	51.861000	366.717000	51.357000	13.169000	21.598000	19.500000	49.539728
304.000000	71.668951	772.255992	37.670665	34.403016	1.000000	362.350000	101.610000	362.658000	100.697000	13.168700	21.518000	32.500000	49.563258
305.000000	72.129529	917.958475	37.668721	34.347913	1.000000	362.610000	95.507000	362.899000	94.632000	13.168000	21.521000	34.500000	49.572595
306.000000	72.439389	687.464771	37.663535	34.304803	1.000000	365.118000	63.881000	365.416000	63.231000	13.168300	21.472000	28.500000	49.580437
307.000000	72.282838	228.554027	37.661591	34.262342	1.000000	368.171000	27.834000	368.435000	27.479000	13.169000	21.561000	15.000000	49.538235
308.000000	71.651449	117.979403	37.657702	34.243542	1.000000	368.137000	30.595000	368.390000	30.242000	13.169000	21.555000	18.000000	49.556908
309.000000	71.270281	303.178925	37.650248	34.218259	1.000000	367.191000	43.028000	367.466000	42.577000	13.169000	21.614000	18.500000	49.558402
310.000000	70.920230	286.242317	37.640201	34.188763	1.000000	366.726000	49.688000	367.018000	49.164000	13.168700	21.709000	18.500000	49.538234
311.000000	70.636299	408.800200	37.634044	34.181632	1.000000	365.826000	60.661000	366.085000	60.057000	13.168000	21.734000	24.000000	49.537860
312.000000	70.683297	612.926372	37.626590	34.174177	1.000000	365.000000	69.355000	365.286000	68.695000	13.168000	21.556000	26.000000	49.514705
313.000000	70.731915	601.289210	37.622701	34.172556	1.000000	364.931000	69.511000	365.216000	68.848000	13.168000	21.515000	26.000000	49.490799
314.000000	70.781830	577.798584	37.613302	34.163156	1.000000	363.972000	81.049000	364.231000	80.304000	13.168000	21.565000	25.500000	49.497149
315.000000	70.960745	823.736380	37.606172	34.157322	1.000000	361.456000	110.140000	361.727000	109.181000	13.167700	21.573000	37.500000	49.481462
316.000000	71.652421	1133.181160	37.601959	34.167370	1.000000	359.822000	127.045000	360.090000	125.989000	13.167000	21.510000	43.500000	49.482956
317.000000	72.372944	1097.382810	37.597746	34.178066	1.000000	358.694000	138.347000	359.001000	137.166000	13.166700	21.504000	48.000000	49.479968
318.000000	73.259418	1346.154338	37.585755	34.187790	1.000000	356.239000	165.658000	356.533000	164.188000	13.166300	21.433000	59.500000	49.490800
319.000000	74.416857	1466.981928	37.579274	34.205942	1.000000	354.995000	176.524000	355.281000	174.990000	13.167000	21.375000	62.000000	49.482956
320.000000	75.561657	1570.851277	37.573440	34.226687	1.000000	352.932000	196.809000	353.238000	195.139000	13.166700	21.469000	73.500000	49.512836
321.000000	77.156662	1989.378742	37.570847	34.236087	1.000000	350.282000	223.627000	350.593000	221.682000	13.166000	21.358000	90.500000	49.539354
322.000000	78.867703	1943.608708	37.568903	34.261045	1.000000	356.084000	148.624000	356.359000	147.271000	13.166900	21.534000	47.500000	49.594255
323.000000	78.842746	46.620704	37.568255	34.301238	1.000000	367.427000	14.068000	367.661000	13.799000	13.169000	21.523000	14.500000	49.605086
324.000000	77.831808	-413.355978	37.569227	34.317445	1.000000	370.764000	-19.849000	370.987000	-19.811000	13.169600	21.503000	4.500000	49.644300
325.000000	76.311027	-586.929146	37.573440	34.327169	1.000000	369.660000	-0.472000	369.914000	-0.580000	13.170400	21.404000	0.000000	49.705546
326.000000	75.470254	434.886472	37.580894	34.331058	1.000000	361.776000	97.774000	362.071000	96.905000	13.168400	21.326000	34.000000	49.736915
327.000000	75.867952	1029.333504	37.591913	34.332355	1.000000	357.675000	144.733000	357.944000	143.460000	13.167000	21.376000	51.000000	49.733928
328.000000	76.631260	1240.749263	37.603580	34.337541	1.000000	356.571000	153.480000	356.858000	152.115000	13.167000	21.409000	53.500000	49.738409
329.000000	77.413042	1249.617738	37.610062	34.330734	1.000000	355.828000	158.958000	356.111000	157.537000	13.167000	21.326000	57.500000	49.739902
330.000000	78.291414	1341.244231	37.623673	34.323927	1.000000	355.767000	155.974000	356.063000	154.594000	13.167000	21.404000	59.000000	49.728700
331.000000	79.035599	1095.133246	37.646683	34.312258	1.000000	357.917000	127.020000	358.218000	125.883000	13.167000	21.420000	41.500000	49.724218
332.000000	79.451448	1007.832866	37.661591	34.299941	1.000000	358.630000	117.420000	358.895000	116.375000	13.167000	21.478000	39.000000	49.724218
333.000000	79.795017	923.171406	37.676499	34.290866	1.000000	358.918000	113.540000	359.163000	112.527000	13.167000	21.414000	38.000000	49.747744
334.000000	80.054315	891.331431	37.690434	34.279845	1.000000	359.709000	102.947000	359.989000	102.002000	13.167300	21.390000	36.500000	49.747744
335.000000	80.252678	821.357034	37.713120	34.261693	1.000000	362.552000	67.976000	362.835000	67.317000	13.168600	21.479000	25.000000	49.772764
336.000000	79.732462	94.185959	37.729649	34.243866	1.000000	364.940000	42.135000	365.221000	41.660000	13.169700	21.348000	19.500000	49.780606
337.000000	79.372362	565.490881	37.740667	34.233818	1.000000	363.412000	62.156000	363.687000	61.551000	13.169000	21.296000	26.500000	49.790316
338.000000	78.999621	277.676677	37.755251	34.226363	1.000000	365.051000	43.427000	365.355000	42.957000	13.169000	21.318000	19.000000	49.779113
339.000000	78.404532	228.510766	37.769835	34.222473	1.000000	365.845000	35.281000	366.135000	34.908000	13.169300	21.488000	19.000000	49.804132
340.000000	77.818843	152.177070	37.777613	34.220204	1.000000	368.307000	7.054000	368.579000	6.852000	13.170000	21.490000	11.500000	49.788448
341.000000	76.640983	-443.772898	37.781826	34.221501	1.000000	371.829000	-31.670000	372.056000	-31.578000	13.170000	21.524000	0.000000	49.767910
342.000000	75.030096	-590.755582	37.786363	34.223769	1.000000	372.664000	-37.429000	372.896000	-37.251000	13.169400	21.914000	0.000000	49.782100
343.000000	73.468476	-580.508517	37.787336	34.228307	1.000000	374.652000	-58.735000	374.900000	-58.411000	13.168600	22.774000	0.000000	49.727206
344.000000	71.344505	-1429.652943	37.791873	34.244838	1.000000	379.072000	-108.987000	379.283000	-108.239000	13.170000	22.176000	0.000000	49.753720
345.000000	68.079951	-2104.165113	37.788632	34.255211	1.000000	377.058000	-76.929000	377.263000	-76.415000	13.170300	21.871000	0.000000	49.757081
346.000000	66.208473	-551.453549	37.786363	34.261369	1.000000	369.471000	18.223000	369.720000	18.033000	13.170400	21.290000	25.500000	49.770898
347.000000	66.310895	586.104662	37.783771	34.268824	1.000000	367.552000	37.304000	367.813000	36.944000	13.169300	21.269000	15.500000	49.772392
348.000000	65.856801	147.310230	37.775344	34.282762	1.000000	366.412000	51.309000	366.661000	50.831000	13.169700	21.196000	23.000000	49.783594
349.000000	65.986449	600.250951	37.767891	34.299293	1.000000	365.401000	60.960000	365.674000	60.391000	13.169000	21.179000	22.500000	49.794424
350.000000	66.001683	533.023636	37.759788	34.306748	1.000000	364.963000	65.173000	365.246000	64.590000	13.168700	21.321000	22.500000	49.795918
351.000000	66.107671	645.588293	37.751686	34.313879	1.000000	362.582000	93.370000	362.863000	92.565000	13.168000	21.473000	34.000000	49.756708
352.000000	66.871949	1153.232563	37.737427	34.332679	1.000000	361.124000	108.248000	361.384000	107.331000	13.168000	21.511000	30.000000	49.770898
353.000000	67.301735	728.411143	37.729649	34.347265	1.000000	362.090000	94.102000	362.356000	93.281000	13.168000	21.429000	37.500000	49.737664
354.000000	68.081247	1140.622026	37.720898	34.362175	1.000000	361.526000	98.357000	361.806000	97.504000	13.168300	21.453000	30.500000	49.741024
355.000000	68.344110	658.566540	37.712796	34.376437	1.000000	363.553000	72.917000	363.830000	72.258000	13.168700	21.472000	27.000000	49.731687
356.000000	68.586229	738.880263	37.701129	34.401072	1.000000	364.301000	63.795000	364.580000	63.205000	13.168600	21.464000	18.500000	49.733182
357.000000	68.358695	283.365473	37.688490	34.434458	1.000000	366.220000	41.461000	366.517000	41.045000	13.170000	21.383000	17.500000	49.751854
358.000000	68.113984	394.848587	37.682332	34.457795	1.000000	366.069000	44.321000	366.353000	43.878000	13.170000	21.360000	21.500000	49.734675
359.000000	67.970074	372.071769	37.678767	34.481781	1.000000	367.797000	23.588000	368.070000	23.317000	13.170000	21.284000	11.000000	49.734675
360.000000	67.285853	3.295009	37.673906	34.509333	1.000000	368.567000	16.340000	368.844000	16.133000	13.169700	21.324000	13.000000	49.736170
361.000000	66.725122	92.693462	37.665156	34.537857	1.000000	368.032000	24.190000	368.305000	23.929000	13.169300	21.405000	14.000000	49.734675
362.000000	66.236671	133.639815	37.659970	34.555360	1.000000	367.859000	27.252000	368.139000	26.958000	13.170000	21.333000	14.000000	49.731687
363.000000	65.805589	196.281464	37.655433	34.576429	1.000000	366.069000	50.028000	366.355000	49.548000	13.169400	21.413000	22.000000	49.723473
364.000000	65.937831	674.270219	37.650896	34.600415	1.000000	364.523000	66.946000	364.814000	66.356000	13.168300	21.399000	26.000000	49.706295
365.000000	66.144296	658.999148	37.644414	34.641256	1.000000	365.497000	54.241000	365.764000	53.724000	13.169300	21.341000	15.500000	49.704800
366.000000	65.831195	272.225815	37.643118	34.663621	1.000000	364.796000	63.950000	365.059000	63.371000	13.169700	21.359000	26.000000	49.682768
367.000000	66.153696	799.207489	37.639229	34.680801	1.000000	362.331000	92.082000	362.607000	91.282000	13.168700	21.501000	31.000000	49.685756
368.000000	66.764017	1022.044052	37.638257	34.702842	1.000000	360.877000	107.257000	361.167000	106.323000	13.167700	21.563000	34.000000	49.671565
369.000000	67.505283	1093.727269	37.636960	34.732338	1.000000	360.991000	103.457000	361.278000	102.591000	13.167900	21.391000	29.500000	49.659240
370.000000	67.912704	791.485431	37.637609	34.762807	1.000000	362.775000	80.616000	363.046000	79.891000	13.169700	21.333000	27.000000	49.659240
371.000000	68.157092	670.852614	37.630803	34.784524	1.000000	363.161000	75.828000	363.423000	75.141000	13.169000	21.410000	25.500000	49.676420
372.000000	68.352861	659.215452	37.626590	34.810131	1.000000	362.925000	78.251000	363.212000	77.553000	13.168700	21.398000	27.500000	49.663723
373.000000	68.667259	772.320883	37.622053	34.838331	1.000000	363.068000	76.356000	363.345000	75.655000	13.168000	21.382000	18.000000	49.677913
374.000000	68.450746	484.895975	37.612654	34.874310	1.000000	362.904000	79.152000	363.180000	78.458000	13.168000	21.380000	30.500000	49.689116
375.000000	68.981333	978.415495	37.609413	34.902833	1.000000	361.804000	90.499000	362.079000	89.702000	13.168000	21.358000	32.000000	49.710778
376.000000	69.169324	539.534389	37.599691	34.927792	1.000000	363.657000	67.623000	363.915000	66.995000	13.168000	21.434000	22.500000	49.698453
377.000000	69.203681	567.956748	37.591913	34.957288	1.000000	361.914000	89.212000	362.202000	88.421000	13.168000	21.350000	27.500000	49.687250
378.000000	69.641893	954.924860	37.578949	34.996185	1.000000	360.874000	100.344000	361.143000	99.470000	13.168300	21.341000	32.000000	49.712272
379.000000	70.080430	794.470428	37.570847	35.026329	1.000000	361.372000	92.568000	361.665000	91.766000	13.168400	21.332000	28.500000	49.734304
380.000000	70.422703	826.786269	37.563393	35.056474	1.000000	362.130000	82.065000	362.421000	81.322000	13.167600	21.405000	29.500000	49.727956
381.000000	70.698530	663.433383	37.555939	35.083377	1.000000	364.295000	55.216000	364.574000	54.688000	13.169000	21.510000	18.000000	49.740652
382.000000	70.341996	300.821211	37.545893	35.133942	1.000000	363.902000	61.663000	364.199000	61.091000	13.169000	21.489000	23.000000	49.737293
383.000000	70.538090	800.159227	37.539411	35.170894	1.000000	363.216000	69.427000	363.506000	68.783000	13.169000	21.416000	22.500000	49.740652
384.000000	70.357878	274.561898	37.535198	35.198445	1.000000	365.728000	39.973000	366.012000	39.580000	13.169300	21.399000	15.500000	49.757830
385.000000	69.893736	179.344857	37.530661	35.222755	1.000000	365.517000	43.651000	365.796000	43.249000	13.169700	21.448000	21.500000	49.755966
386.000000	69.853545	599.126169	37.528068	35.278183	1.000000	363.887000	63.071000	364.172000	62.516000	13.169300	21.392000	24.000000	49.743641
387.000000	69.900867	566.204685	37.526772	35.312217	1.000000	364.906000	50.351000	365.162000	49.870000	13.169700	21.481000	17.500000	49.746629
388.000000	69.599109	281.440367	37.526448	35.330044	1.000000	365.038000	50.129000	365.320000	49.655000	13.168700	21.502000	17.500000	49.737293
389.000000	69.317772	353.642662	37.531309	35.348520	1.000000	362.371000	83.397000	362.666000	82.652000	13.168300	21.570000	30.500000	49.737293
390.000000	69.835394	979.929625	37.535522	35.371534	1.000000	361.714000	89.101000	361.980000	88.301000	13.169000	21.479000	23.500000	49.716755
391.000000	69.805251	477.887723	37.546541	35.419506	1.000000	364.241000	57.469000	364.509000	56.919000	13.169000	21.451000	21.000000	49.715260
392.000000	69.707042	460.821331	37.551078	35.447381	1.000000	363.121000	71.888000	363.370000	71.253000	13.169000	21.524000	25.000000	49.730945
393.000000	69.851924	651.709699	37.557884	35.461967	1.000000	362.656000	76.401000	362.926000	75.728000	13.168700	21.538000	25.000000	49.724598
394.000000	70.008475	682.035537	37.565014	35.479471	1.000000	362.753000	74.334000	363.026000	73.663000	13.168300	21.440000	26.000000	49.716755
395.000000	70.145255	593.913240	37.574412	35.492760	1.000000	362.774000	73.826000	363.060000	73.146000	13.168700	21.422000	24.000000	49.723103
396.000000	70.203596	603.127795	37.585431	35.497298	1.000000	361.618000	87.275000	361.918000	86.501000	13.167700	21.395000	33.500000	49.745135
397.000000	70.779885	1011.596559	37.591265	35.498595	1.000000	361.593000	85.182000	361.884000	84.439000	13.167600	21.451000	25.500000	49.738418
398.000000	70.829152	554.740567	37.602608	35.502808	1.000000	363.617000	60.874000	363.875000	60.328000	13.169000	21.461000	22.000000	49.754102
399.000000	70.761086	510.181923	37.621404	35.506698	1.000000	363.555000	62.452000	363.806000	61.871000	13.169000	21.397000	22.000000	49.751113
400.000000	70.731915	544.141666	37.634044	35.512533	1.000000	362.956000	69.964000	363.250000	69.322000	13.168700	21.454000	23.000000	49.752608
401.000000	70.734184	594.951500	37.643442	35.530036	1.000000	362.326000	77.179000	362.609000	76.491000	13.168000	21.455000	26.000000	49.751113
402.000000	70.937732	729.968533	37.652192	35.542677	1.000000	361.382000	87.789000	361.672000	87.017000	13.168000	21.472000	27.500000	49.754102
403.000000	71.229442	827.197246	37.662887	35.540408	1.000000	362.295000	76.044000	362.588000	75.324000	13.168300	21.424000	25.000000	49.768292
404.000000	70.969820	188.689192	37.675527	35.548512	1.000000	364.306000	51.861000	364.600000	51.350000	13.168700	21.377000	16.000000	49.768292
405.000000	70.976303	825.293770	37.682332	35.541381	1.000000	360.480000	98.795000	360.751000	97.934000	13.168000	21.318000	30.500000	49.748124
406.000000	71.408357	921.873581	37.688490	35.547215	1.000000	360.108000	101.218000	360.373000	100.329000	13.168000	21.336000	32.500000	49.763439
407.000000	71.814158	820.232253	37.695296	35.558884	1.000000	360.452000	94.733000	360.734000	93.869000	13.168000	21.283000	33.500000	49.771281
408.000000	72.446844	1113.043236	37.702750	35.558560	1.000000	360.948000	87.589000	361.206000	86.783000	13.168300	21.350000	20.000000	49.751113
409.000000	72.246861	415.981495	37.705342	35.565367	1.000000	363.057000	62.260000	363.354000	61.669000	13.169000	21.472000	24.000000	49.785840
410.000000	72.318492	663.022405	37.709555	35.573470	1.000000	362.135000	74.199000	362.422000	73.504000	13.169000	21.394000	25.500000	49.793312
411.000000	72.333077	558.006759	37.711500	35.579629	1.000000	362.486000	70.356000	362.772000	69.708000	13.168700	21.337000	22.500000	49.789955
412.000000	72.245888	513.426485	37.711500	35.597780	1.000000	362.744000	67.377000	363.038000	66.766000	13.168300	21.406000	21.000000	49.794807
413.000000	72.076697	434.432233	37.711500	35.616904	1.000000	361.908000	78.014000	362.185000	77.313000	13.168700	21.402000	21.000000	49.819827
414.000000	72.384288	1036.558064	37.709879	35.628249	1.000000	359.631000	104.340000	359.898000	103.437000	13.168300	21.342000	30.000000	49.821322
415.000000	72.643586	730.184837	37.708583	35.645104	1.000000	362.142000	70.979000	362.396000	70.329000	13.169300	21.318000	31.000000	49.821321
416.000000	72.915848	807.167482	37.701453	35.681731	1.000000	365.565000	28.780000	365.805000	28.470000	13.170000	21.333000	7.500000	49.804143
417.000000	71.861804	-224.952662	37.694972	35.696642	1.000000	367.257000	13.436000	367.506000	13.215000	13.170000	21.276000	12.500000	49.801154
418.000000	71.179527	109.759850	37.690758	35.712200	1.000000	365.997000	30.785000	366.264000	30.439000	13.169700	21.278000	16.500000	49.819827
419.000000	70.701123	208.243077	37.684925	35.717710	1.000000	365.403000	38.745000	365.666000	38.337000	13.169000	21.316000	17.000000	49.816469
420.000000	70.293702	291.001006	37.678767	35.722248	1.000000	363.868000	58.089000	364.135000	57.536000	13.168700	21.461000	24.000000	49.813480
421.000000	70.314770	583.379230	37.671638	35.745262	1.000000	362.297000	75.771000	362.557000	75.099000	13.168000	21.440000	27.000000	49.835510
422.000000	70.538090	760.553938	37.667424	35.766331	1.000000	361.856000	80.243000	362.116000	79.527000	13.168300	21.455000	26.000000	49.810490
423.000000	70.317039	241.229444	37.659322	35.782213	1.000000	362.827000	67.885000	363.099000	67.277000	13.169000	21.424000	32.500000	49.799291
424.000000	70.779885	952.675297	37.649276	35.798744	1.000000	362.948000	63.919000	363.248000	63.335000	13.169000	21.264000	19.500000	49.794807
425.000000	70.505030	317.000754	37.636960	35.805551	1.000000	364.847000	41.226000	365.132000	40.799000	13.168700	21.295000	24.500000	49.778755
426.000000	70.553324	697.349870	37.631127	35.804579	1.000000	365.955000	28.398000	366.196000	28.086000	13.168600	21.412000	4.500000	49.802280
427.000000	69.398478	-301.416522	37.625618	35.806848	1.000000	368.198000	5.128000	368.436000	5.014000	13.169700	21.425000	12.500000	49.813480
428.000000	68.725601	49.951786	37.620432	35.805551	1.000000	366.128000	31.792000	366.399000	31.465000	13.169000	21.453000	16.500000	49.824311
429.000000	68.440374	398.136409	37.615247	35.802634	1.000000	364.242000	54.696000	364.507000	54.181000	13.169000	21.543000	22.500000	49.819827
430.000000	68.430650	536.419610	37.612330	35.806848	1.000000	364.906000	45.131000	365.203000	44.687000	13.169000	21.410000	18.500000	49.807132
431.000000	68.066986	231.971631	37.612330	35.812358	1.000000	366.365000	28.274000	366.643000	27.956000	13.169300	21.398000	16.000000	49.813112
432.000000	67.525055	35.264743	37.613302	35.824999	1.000000	366.382000	29.584000	366.638000	29.268000	13.170000	21.325000	12.500000	49.813112
433.000000	67.172734	447.259065	37.609737	35.842178	1.000000	363.326000	67.660000	363.599000	67.057000	13.169400	21.280000	25.500000	49.777260
434.000000	67.413233	770.893276	37.610062	35.853523	1.000000	362.499000	75.611000	362.776000	74.930000	13.168600	21.393000	28.500000	49.781745
435.000000	67.611271	580.524016	37.610062	35.858061	1.000000	363.625000	60.403000	363.901000	59.868000	13.169700	21.324000	23.000000	49.803775
436.000000	67.611919	514.594527	37.612654	35.871999	1.000000	364.064000	54.897000	364.354000	54.381000	13.169300	21.322000	23.000000	49.776893
437.000000	67.516627	401.835209	37.613626	35.889178	1.000000	366.028000	30.681000	366.315000	30.366000	13.170000	21.338000	17.500000	49.773903
438.000000	67.113744	57.673840	37.610062	35.919971	1.000000	367.373000	16.082000	367.647000	15.873000	13.170000	21.322000	9.000000	49.766061
439.000000	66.360161	25.249867	37.606172	35.937798	1.000000	365.291000	43.645000	365.560000	43.224000	13.169700	21.293000	22.500000	49.767556
440.000000	66.471011	599.731821	37.604228	35.958867	1.000000	364.904000	46.809000	365.194000	46.359000	13.169300	21.181000	18.500000	49.770546
441.000000	66.105078	114.237343	37.597422	35.979288	1.000000	365.709000	37.186000	366.002000	36.820000	13.169700	21.209000	20.500000	49.781745
442.000000	66.131007	635.919499	37.591265	36.004246	1.000000	363.773000	61.151000	364.058000	60.593000	13.169000	21.211000	24.500000	49.776893
443.000000	65.920653	175.256711	37.585107	36.026936	1.000000	365.360000	40.988000	365.613000	40.590000	13.169000	21.300000	20.000000	49.770546
444.000000	66.046088	694.451394	37.578301	36.051894	1.000000	365.775000	35.857000	366.026000	35.496000	13.168400	21.968000	15.000000	49.763071
445.000000	65.174201	-544.103334	37.571820	36.074584	1.000000	371.492000	-31.049000	371.731000	-30.893000	13.167900	23.048000	0.000000	49.759714
446.000000	62.694023	-1053.278672	37.558856	36.114128	1.000000	370.734000	-16.337000	370.994000	-16.266000	13.170000	21.448000	0.000000	49.770546
447.000000	62.192932	255.008012	37.552375	36.134549	1.000000	369.059000	3.710000	369.325000	3.721000	13.170000	21.195000	6.500000	49.773536
448.000000	61.301922	-211.052107	37.544272	36.157238	1.000000	368.308000	14.217000	368.585000	14.375000	13.170000	21.190000	11.500000	49.761209
449.000000	60.917514	302.594904	37.539087	36.177659	1.000000	365.435000	49.529000	365.705000	49.069000	13.170000	21.308000	23.000000	49.772041
450.000000	61.257193	755.059813	37.533254	36.210072	1.000000	365.218000	50.209000	365.494000	49.721000	13.170000	21.414000	14.000000	49.756357
451.000000	60.917514	159.899124	37.526448	36.248320	1.000000	365.704000	44.653000	365.994000	44.230000	13.169700	21.394000	18.000000	49.750377
452.000000	60.947657	575.462500	37.521911	36.278465	1.000000	364.627000	56.765000	364.914000	56.268000	13.169000	21.368000	22.000000	49.747019
453.000000	61.111987	557.509260	37.518994	36.300506	1.000000	363.604000	68.433000	363.887000	67.865000	13.169000	21.367000	25.000000	49.748515
454.000000	61.584232	836.779521	37.512188	36.333244	1.000000	362.857000	76.519000	363.150000	75.850000	13.169300	21.448000	27.500000	49.728345
455.000000	61.842880	438.520380	37.505706	36.375057	1.000000	364.824000	51.233000	365.124000	50.747000	13.169700	21.397000	19.500000	49.750010
456.000000	61.842880	441.786572	37.500845	36.406174	1.000000	364.786000	51.911000	365.080000	51.414000	13.169000	21.222000	20.000000	49.740673
457.000000	61.844825	456.862966	37.495336	36.435347	1.000000	364.537000	54.800000	364.826000	54.325000	13.169000	21.320000	23.500000	49.726484
458.000000	62.084675	572.931742	37.493067	36.464195	1.000000	365.344000	43.976000	365.651000	43.554000	13.169300	21.296000	16.000000	49.734326
459.000000	61.794586	252.866602	37.482372	36.501470	1.000000	365.160000	46.991000	365.448000	46.566000	13.169700	21.291000	22.500000	49.745159
460.000000	62.022120	625.104293	37.476863	36.527725	1.000000	363.756000	63.315000	364.028000	62.743000	13.169000	21.356000	24.500000	49.747019
461.000000	62.376060	755.795247	37.471353	36.549442	1.000000	363.548000	65.571000	363.851000	64.961000	13.168700	21.248000	17.500000	49.748515
462.000000	62.197145	258.706811	37.463900	36.574077	1.000000	364.654000	52.194000	364.949000	51.712000	13.168300	21.314000	23.000000	49.735821
463.000000	62.526777	759.039809	37.454825	36.610056	1.000000	364.167000	57.552000	364.451000	57.051000	13.169000	21.358000	16.000000	49.745159
464.000000	62.233447	272.831466	37.447695	36.629504	1.000000	364.863000	49.500000	365.179000	49.026000	13.169000	21.258000	25.000000	49.747020
465.000000	62.581877	724.322995	37.443158	36.638256	1.000000	364.405000	53.957000	364.674000	53.458000	13.169300	21.105000	17.500000	49.740307
466.000000	62.582525	589.500637	37.441862	36.652193	1.000000	363.521000	64.908000	363.814000	64.336000	13.170000	21.113000	26.000000	49.743298
467.000000	62.921881	694.537916	37.434732	36.679745	1.000000	364.743000	48.801000	365.046000	48.355000	13.170000	21.041000	17.500000	49.733961
468.000000	62.685596	181.399746	37.433436	36.701462	1.000000	366.590000	27.366000	366.894000	27.101000	13.170000	21.074000	13.500000	49.726484
469.000000	62.249005	129.832864	37.432463	36.716372	1.000000	368.192000	9.912000	368.479000	9.750000	13.170300	21.176000	8.000000	49.740307
470.000000	61.164495	-572.509754	37.435380	36.719938	1.000000	371.518000	-28.311000	371.786000	-28.163000	13.171000	21.132000	0.000000	49.729474
471.000000	59.853748	-573.720377	37.437649	36.725448	1.000000	371.541000	-25.363000	371.787000	-25.261000	13.171000	21.118000	1.500000	49.740307
472.000000	58.867123	-209.538827	37.442510	36.744896	1.000000	372.667000	-37.252000	372.921000	-37.057000	13.170700	21.335000	0.000000	49.702591
473.000000	56.597302	-1743.442340	37.447371	36.766937	1.000000	374.942000	-61.974000	375.179000	-61.581000	13.170000	21.758000	0.000000	49.708938
474.000000	55.318645	-563.603023	37.452232	36.776013	1.000000	372.163000	-25.265000	372.396000	-25.139000	13.169400	21.687000	0.000000	49.702591
475.000000	54.135603	-557.571523	37.457094	36.779255	1.000000	373.744000	-43.478000	373.978000	-43.206000	13.168900	22.845000	0.000000	49.672718
476.000000	52.072573	-1626.163141	37.467789	36.782820	1.000000	375.746000	-64.846000	375.975000	-64.407000	13.171000	21.664000	0.000000	49.704087
477.000000	49.312684	-1431.166228	37.474594	36.794165	1.000000	372.526000	-20.381000	372.785000	-20.283000	13.171000	20.992000	0.500000	49.704087
478.000000	48.460246	-400.341773	37.482048	36.810047	1.000000	372.471000	-21.289000	372.736000	-21.201000	13.170700	21.591000	0.000000	49.701096
479.000000	47.339112	-549.399813	37.483993	36.825606	1.000000	374.561000	-46.051000	374.788000	-45.753000	13.170000	22.580000	0.000000	49.699600
480.000000	44.264503	-2483.804017	37.490798	36.837275	1.000000	379.189000	-100.159000	379.409000	-99.439000	13.168500	23.546000	0.000000	49.704087
481.000000	40.987644	-2479.134464	37.494039	36.857047	1.000000	380.340000	-110.115000	380.566000	-109.340000	13.165600	26.486000	0.000000	49.733960
482.000000	37.026568	-2825.157059	37.494363	36.881681	1.000000	378.025000	-76.714000	378.268000	-76.190000	13.167300	25.398000	0.000000	49.740307
483.000000	34.078044	-1680.360186	37.492419	36.903398	1.000000	373.118000	-13.794000	373.371000	-13.741000	13.167100	25.045000	0.000000	49.730605
484.000000	33.137123	-605.283065	37.489826	36.927060	1.000000	374.692000	-35.222000	374.946000	-34.990000	13.165300	26.224000	0.000000	49.752636
485.000000	29.404877	-3169.904338	37.480104	36.949102	1.000000	375.938000	-48.785000	376.175000	-48.456000	13.164200	27.215000	0.000000	49.793341
486.000000	24.432549	-3682.820858	37.473298	36.962715	1.000000	372.392000	-4.270000	372.625000	-4.273000	13.161800	28.848000	0.000000	49.837401
487.000000	18.084979	-4596.866861	37.462927	36.972439	1.000000	372.281000	-3.889000	372.515000	-3.908000	13.166000	25.023000	0.000000	49.846738
488.000000	16.862074	-344.890884	37.452557	36.993832	1.000000	372.798000	-10.567000	373.027000	-10.541000	13.166000	25.250000	0.000000	49.838896
489.000000	14.433118	-2665.159962	37.435704	37.011336	1.000000	373.810000	-23.028000	374.063000	-22.905000	13.166300	25.002000	0.000000	49.856075
490.000000	9.539228	-3468.345339	37.422417	37.024625	1.000000	372.366000	-3.899000	372.617000	-4.059000	13.165800	25.938000	0.000000	49.859066
491.000000	5.325666	-2663.430498	37.409129	37.025273	1.000000	371.962000	1.398000	372.201000	1.005000	13.162400	29.232000	0.000000	49.865412
492.000000	2.189155	-2135.381928	37.397462	37.031108	1.000000	371.646000	4.507000	371.897000	4.396000	13.161000	30.147000	0.000000	49.866908
493.000000	0.001992	-1050.533149	37.378341	37.034998	1.000000	371.693000	3.865000	371.932000	3.763000	13.161300	29.473000	0.000000	49.857571
494.000000	0.002317	-3.992198	37.369267	37.023977	1.000000	371.770000	3.203000	372.030000	3.082000	13.161700	29.532000	0.000000	49.863553
495.000000	0.001344	-3.300413	37.357924	37.012308	1.000000	371.773000	3.210000	372.027000	3.110000	13.161300	29.337000	0.000000	49.890432
496.000000	0.000048	-3.170704	37.351118	37.004205	1.000000	371.789000	3.180000	372.032000	3.074000	13.162000	28.989000	0.000000	49.885582
497.000000	-0.001249	-3.040994	37.339127	37.000315	1.000000	371.807000	3.104000	372.066000	2.990000	13.162000	29.013000	0.000000	49.866908
498.000000	-0.002221	-2.976139	37.331997	37.002584	1.000000	371.809000	3.096000	372.086000	2.999000	13.162000	29.047000	0.000000	49.885582
499.000000	-0.001573	-2.911284	37.327784	37.003556	1.000000	371.839000	3.116000	372.103000	3.020000	13.162000	29.152000	0.000000	49.866908
500.000000	-0.000925	-2.846429	37.321951	37.007122	1.000000	371.776000	4.231000	372.023000	4.133000	13.162300	28.908000	0.000000	49.847870
501.000000	0.494007	883.912198	37.320330	37.013605	1.000000	370.950000	14.516000	371.196000	14.374000	13.162700	28.101000	13.500000	49.859066
502.000000	4.154296	3475.912326	37.318386	37.020087	1.000000	368.667000	42.084000	368.945000	41.693000	13.162300	28.098000	32.000000	49.827700
503.000000	9.183020	3990.308279	37.319034	37.027867	1.000000	365.474000	79.313000	365.797000	78.628000	13.163900	27.126000	41.500000	49.797828
504.000000	14.939717	4717.312298	37.319358	37.035646	1.000000	362.471000	112.475000	362.792000	111.545000	13.166000	24.430000	52.000000	49.830691
505.000000	20.086097	3647.680384	37.320006	37.047963	1.000000	362.172000	111.924000	362.472000	110.973000	13.166000	23.642000	46.000000	49.872891
506.000000	24.262386	3242.973255	37.326164	37.077459	1.000000	362.896000	99.410000	363.181000	98.560000	13.166000	23.681000	47.500000	49.951303
507.000000	27.417696	1708.355980	37.327460	37.099825	1.000000	367.602000	39.006000	367.870000	38.611000	13.166300	23.861000	15.500000	50.062932
508.000000	27.937261	226.693812	37.329729	37.119921	1.000000	370.700000	2.872000	370.989000	2.752000	13.166700	24.464000	0.000000	50.185020
509.000000	27.251746	-406.113854	37.332969	37.149742	1.000000	372.819000	-19.787000	373.056000	-19.744000	13.166000	25.599000	0.000000	50.257072
510.000000	25.141075	-1790.570205	37.339127	37.201603	1.000000	375.501000	-50.088000	375.749000	-49.801000	13.166600	24.958000	0.000000	50.313442
511.000000	22.272936	-2313.689625	37.341720	37.248927	1.000000	375.096000	-41.846000	375.371000	-41.616000	13.166500	26.155000	0.000000	50.341808
512.000000	17.940097	-3372.511280	37.343664	37.287823	1.000000	372.102000	-2.118000	372.348000	-2.177000	13.162700	28.549000	0.000000	50.333969
513.000000	12.255354	-4643.173428	37.343664	37.322182	1.000000	371.903000	-0.218000	372.160000	-0.277000	13.162900	28.231000	0.000000	50.297764
514.000000	6.738506	-3294.879869	37.344637	37.366264	1.000000	371.500000	5.064000	371.753000	4.982000	13.164400	27.078000	0.000000	50.285076
515.000000	6.909965	1034.005676	37.347229	37.397705	1.000000	369.014000	35.699000	369.271000	35.368000	13.162700	28.529000	28.500000	50.277237
516.000000	10.767967	3150.546083	37.344961	37.418450	1.000000	366.292000	67.152000	366.551000	66.572000	13.163500	27.350000	32.000000	50.253718
517.000000	15.039546	3489.561189	37.346257	37.437250	1.000000	364.128000	91.131000	364.402000	90.357000	13.167000	24.313000	40.000000	50.208177
518.000000	19.407713	3459.884105	37.345285	37.462208	1.000000	362.428000	108.485000	362.706000	107.567000	13.167000	23.763000	46.000000	50.189506
519.000000	23.646881	3253.745251	37.344961	37.488787	1.000000	362.599000	102.714000	362.904000	101.844000	13.167000	23.794000	35.500000	50.188011
520.000000	26.457652	1976.789819	37.344312	37.508560	1.000000	365.568000	64.424000	365.826000	63.830000	13.167300	23.862000	25.000000	50.239897
521.000000	28.024125	1138.675288	37.342368	37.524442	1.000000	368.552000	28.248000	368.782000	27.937000	13.167100	24.490000	0.000000	50.283580
522.000000	27.545075	-415.323241	37.337183	37.547456	1.000000	373.124000	-25.973000	373.354000	-25.848000	13.165900	25.539000	0.000000	50.349284
523.000000	24.906088	-2490.332744	37.332969	37.581814	1.000000	376.450000	-63.954000	376.692000	-63.535000	13.168000	24.744000	0.000000	50.358619
524.000000	21.104158	-2698.819665	37.332321	37.607745	1.000000	375.193000	-44.004000	375.463000	-43.745000	13.166800	25.583000	0.000000	50.394822
525.000000	16.898375	-3241.331276	37.328432	37.631407	1.000000	372.582000	-9.228000	372.855000	-9.234000	13.164000	27.557000	0.000000	50.411994
526.000000	12.215488	-3378.283373	37.324543	37.654745	1.000000	372.067000	-2.961000	372.350000	-2.846000	13.164600	27.216000	0.000000	50.418338
527.000000	7.056468	-3955.147176	37.319034	37.701420	1.000000	371.810000	0.000000	372.091000	0.133000	13.164500	27.021000	0.000000	50.389974
528.000000	6.182316	-526.614146	37.312228	37.731565	1.000000	371.781000	1.278000	372.029000	0.847000	13.160400	30.791000	0.000000	50.434015
529.000000	2.692190	-2751.503480	37.312228	37.757496	1.000000	371.529000	4.374000	371.767000	4.247000	13.161100	29.845000	0.000000	50.427672
530.000000	1.508179	-834.090934	37.306070	37.782130	1.000000	371.339000	6.608000	371.601000	6.485000	13.165100	25.822000	0.000000	50.404156
531.000000	2.398537	1115.292801	37.299589	37.821351	1.000000	369.975000	23.839000	370.213000	23.601000	13.163000	28.043000	24.500000	50.366458
532.000000	6.727810	4158.183105	37.292459	37.865757	1.000000	366.903000	60.620000	367.195000	60.079000	13.162700	28.206000	37.500000	50.352275
533.000000	11.816496	3847.957593	37.286625	37.889743	1.000000	364.776000	84.122000	365.075000	83.408000	13.163500	26.763000	40.000000	50.352275
534.000000	16.770348	3820.400272	37.282412	37.915674	1.000000	363.060000	102.129000	363.322000	101.259000	13.166700	23.633000	44.500000	50.349284
535.000000	21.189726	3358.004342	37.278523	37.942902	1.000000	361.960000	111.890000	362.250000	110.932000	13.166000	23.584000	45.500000	50.379144
536.000000	25.203631	3119.874024	37.273662	37.965267	1.000000	362.585000	101.019000	362.872000	100.148000	13.166300	23.777000	39.000000	50.439997
537.000000	27.770663	1555.385516	37.271069	37.975639	1.000000	367.151000	42.876000	367.416000	42.426000	13.167300	23.794000	15.500000	50.516884
538.000000	28.523270	624.758207	37.268477	37.994439	1.000000	370.804000	-0.686000	371.040000	-0.793000	13.167400	24.375000	0.000000	50.587425
539.000000	27.656897	-571.904442	37.264588	38.019722	1.000000	373.507000	-30.491000	373.742000	-30.331000	13.166600	25.372000	0.000000	50.648629
540.000000	23.882841	-2952.121406	37.258106	38.088763	1.000000	376.028000	-57.395000	376.240000	-57.027000	13.167700	24.876000	0.000000	50.692302
541.000000	19.751605	-3091.429837	37.253893	38.140624	1.000000	373.987000	-28.502000	374.236000	-28.377000	13.165800	26.055000	0.000000	50.690807
542.000000	15.348433	-3368.274087	37.249356	38.186976	1.000000	372.038000	-3.231000	372.296000	-3.281000	13.163300	28.385000	0.000000	50.682969
543.000000	9.890574	-4442.208940	37.245143	38.229762	1.000000	371.581000	2.017000	371.820000	1.958000	13.163700	27.755000	0.000000	50.679618
544.000000	4.314735	-3896.280408	37.236392	38.295237	1.000000	371.515000	2.866000	371.778000	2.774000	13.162400	28.107000	0.000000	50.671781
545.000000	3.242222	-554.566582	37.232179	38.342885	1.000000	371.206000	7.048000	371.476000	6.916000	13.161600	29.221000	0.000000	50.656106
546.000000	3.411088	606.804968	37.226022	38.375623	1.000000	369.437000	29.207000	369.713000	28.927000	13.163000	28.456000	23.500000	50.612433
547.000000	8.168848	4415.089521	37.221809	38.404795	1.000000	365.676000	73.659000	365.957000	73.027000	13.163600	27.383000	36.500000	50.591911
548.000000	13.710978	4244.229533	37.209817	38.447257	1.000000	363.808000	93.324000	364.083000	92.518000	13.165600	24.867000	32.000000	50.540037
549.000000	18.320939	3348.443652	37.205928	38.480967	1.000000	362.438000	107.302000	362.736000	106.380000	13.167000	23.432000	22.500000	50.515027
550.000000	22.363365	3544.394582	37.200419	38.509491	1.000000	359.585000	139.638000	359.867000	138.457000	13.166700	23.587000	31.500000	50.519515
551.000000	27.237161	3707.596979	37.194261	38.530884	1.000000	360.054000	128.370000	360.358000	127.266000	13.166000	23.744000	18.500000	50.582578
552.000000	30.192165	2029.503233	37.190372	38.555518	1.000000	365.704000	57.149000	365.973000	56.585000	13.165700	24.352000	0.000000	50.656106
553.000000	30.099467	-549.767323	37.181946	38.588904	1.000000	373.226000	-33.206000	373.449000	-33.049000	13.165600	25.355000	0.000000	50.710966
554.000000	26.048288	-3209.033501	37.176437	38.616455	1.000000	376.136000	-63.724000	376.378000	-63.335000	13.166400	25.296000	0.000000	50.776652
555.000000	21.779301	-3170.012430	37.170927	38.648221	1.000000	373.187000	-22.400000	373.463000	-22.576000	13.164100	27.610000	0.000000	50.828518
556.000000	16.985888	-3712.005619	37.167687	38.686793	1.000000	371.491000	0.000000	371.772000	-0.770000	13.163500	28.270000	0.000000	50.833004
557.000000	10.738148	-4773.272911	37.159260	38.743192	1.000000	371.671000	-2.298000	371.928000	-2.650000	13.166100	25.600000	0.000000	50.847182
558.000000	6.724569	-2890.811870	37.152455	38.787923	1.000000	371.861000	-4.099000	372.111000	-4.162000	13.162800	28.227000	0.000000	50.831508
559.000000	2.627366	-3289.215865	37.148241	38.822282	1.000000	371.213000	4.216000	371.451000	4.079000	13.160300	30.315000	0.000000	50.817331
560.000000	0.118352	-1381.811685	37.140788	38.851778	1.000000	371.256000	3.909000	371.484000	3.788000	13.161000	29.578000	0.000000	50.800162
561.000000	0.033108	-1.289913	37.131389	38.897481	1.000000	371.349000	3.163000	371.610000	3.054000	13.161300	29.392000	0.000000	50.770311
562.000000	-0.002545	-3.322032	37.126204	38.927302	1.000000	371.382000	3.176000	371.625000	3.049000	13.162000	29.287000	0.000000	50.748296
563.000000	-0.001897	-3.105849	37.121991	38.951612	1.000000	371.419000	3.157000	371.672000	3.037000	13.162000	29.023000	0.000000	50.688591
564.000000	-0.003193	-2.976139	37.117129	38.973653	1.000000	371.452000	3.065000	371.709000	2.948000	13.162000	28.822000	0.000000	50.669925
565.000000	-0.003842	-2.824811	37.110324	38.995694	1.000000	371.489000	3.027000	371.739000	2.914000	13.162000	28.984000	0.000000	50.605731
566.000000	-0.004166	-2.868048	37.102221	39.015466	1.000000	371.522000	3.023000	371.766000	2.900000	13.162300	28.886000	0.000000	50.591551
567.000000	-0.004166	-2.759956	37.099305	39.023246	1.000000	371.358000	5.514000	371.591000	5.384000	13.163300	28.453000	0.000000	50.566183
568.000000	1.152619	1292.683921	37.096064	39.022922	1.000000	369.734000	25.629000	369.995000	25.382000	13.163400	27.882000	29.500000	50.521010
569.000000	6.383918	4646.536938	37.094119	39.022597	1.000000	365.826000	72.501000	366.133000	71.867000	13.162600	27.474000	50.000000	50.505334
570.000000	12.629065	4887.523654	37.092499	39.027784	1.000000	362.993000	103.628000	363.302000	102.731000	13.164900	25.837000	52.500000	50.498992
571.000000	18.396783	4222.252869	37.091851	39.038156	1.000000	362.075000	110.734000	362.396000	109.784000	13.167000	23.854000	38.500000	50.486307
572.000000	22.264833	3181.066732	37.092175	39.055659	1.000000	358.725000	149.721000	359.031000	148.439000	13.166400	23.514000	63.000000	50.528490
573.000000	27.866278	4540.611867	37.092175	39.077052	1.000000	353.295000	210.117000	353.633000	208.300000	13.164700	23.666000	65.000000	50.644559
574.000000	33.575333	4504.358983	37.090879	39.126321	1.000000	352.599000	211.865000	352.958000	210.040000	13.164300	23.872000	63.500000	50.741955
575.000000	37.574979	2592.176539	37.091203	39.171376	1.000000	356.116000	163.750000	356.423000	162.290000	13.164700	23.881000	40.500000	50.845327
576.000000	40.976948	2923.815165	37.092499	39.213838	1.000000	352.380000	206.637000	352.698000	204.844000	13.164000	23.997000	46.500000	50.936011
577.000000	44.932516	3367.413619	37.091527	39.267968	1.000000	348.762000	245.095000	349.110000	243.000000	13.163700	23.954000	52.500000	51.031892
578.000000	49.125342	3350.996054	37.088934	39.364236	1.000000	352.075000	197.656000	352.389000	195.916000	13.165100	23.042000	54.500000	51.099060
579.000000	51.467115	1416.712803	37.083425	39.467960	1.000000	363.337000	57.274000	363.622000	56.834000	13.170000	21.134000	11.500000	51.141584
580.000000	51.359183	-78.359092	37.075647	39.561959	1.000000	368.585000	-1.662000	368.841000	-1.369000	13.170300	21.187000	5.000000	51.150914
581.000000	50.700893	-211.722273	37.071109	39.654662	1.000000	369.781000	-10.949000	370.042000	-11.012000	13.171000	21.255000	5.000000	51.183748
582.000000	49.733393	-534.872329	37.053609	39.790151	1.000000	372.655000	-42.530000	372.901000	-42.298000	13.171000	21.607000	0.000000	51.152409
583.000000	47.512841	-1885.452870	37.033840	39.918509	1.000000	376.575000	-86.242000	376.823000	-85.641000	13.171000	22.134000	0.000000	51.106895
584.000000	44.861209	-1632.972901	37.016663	40.022232	1.000000	377.441000	-90.917000	377.661000	-90.295000	13.169500	23.579000	0.000000	51.067719
585.000000	41.436551	-2438.340732	36.997218	40.118176	1.000000	378.737000	-101.205000	378.963000	-100.497000	13.166000	26.465000	0.000000	50.990861
586.000000	37.282299	-3172.001315	36.976153	40.223196	1.000000	378.092000	-88.370000	378.320000	-87.732000	13.166000	26.567000	0.000000	50.917348
587.000000	32.799713	-3191.782080	36.938235	40.396933	1.000000	376.829000	-69.407000	377.035000	-68.930000	13.165700	26.337000	0.000000	50.884150
588.000000	28.387464	-3173.687544	36.912632	40.488339	1.000000	375.063000	-45.606000	375.283000	-45.315000	13.164700	27.101000	0.000000	50.835995
589.000000	23.846215	-3294.879866	36.886381	40.562566	1.000000	374.010000	-31.862000	374.224000	-31.677000	13.164600	26.953000	0.000000	50.841977
590.000000	19.219076	-3405.565705	36.861427	40.628366	1.000000	373.000000	-19.040000	373.215000	-18.935000	13.165100	26.572000	0.000000	50.834141
591.000000	13.832199	-4712.871120	36.821565	40.701945	1.000000	371.382000	0.675000	371.638000	0.648000	13.163300	27.839000	0.000000	50.843473
592.000000	6.676599	-5919.287635	36.793045	40.740841	1.000000	371.155000	2.823000	371.416000	2.724000	13.163100	27.686000	0.000000	50.822955
593.000000	2.876614	-2322.380179	36.774896	40.758992	1.000000	371.038000	4.151000	371.284000	4.031000	13.161000	29.802000	0.000000	50.821459
594.000000	0.083347	-1763.850003	36.753183	40.766772	1.000000	371.046000	3.839000	371.297000	3.722000	13.161300	29.928000	0.000000	50.812127
595.000000	0.048666	-14.044700	36.723367	40.782330	1.000000	371.139000	3.151000	371.357000	3.044000	13.161700	29.821000	0.000000	50.782276
596.000000	-0.002545	-3.473360	36.704894	40.787192	1.000000	371.169000	3.139000	371.371000	3.045000	13.161000	29.791000	0.000000	50.744588
597.000000	-0.001573	-3.170704	36.690310	40.791730	1.000000	371.193000	3.103000	371.429000	3.020000	13.161300	29.629000	0.000000	50.728914
598.000000	-0.001249	-3.105849	36.679940	40.788813	1.000000	371.200000	2.988000	371.453000	2.895000	13.162000	29.162000	0.000000	50.718086
599.000000	-0.002869	-3.040994	36.667949	40.784275	1.000000	371.215000	3.012000	371.472000	2.906000	13.162000	28.909000	0.000000	50.696070
600.000000	-0.002545	-2.824811	36.655633	40.778441	1.000000	371.256000	2.985000	371.509000	2.868000	13.162000	29.166000	0.000000	50.703908
601.000000	-0.003193	-2.803193	36.648828	40.783303	0.000000	371.270000	3.020000	371.530000	2.910000	13.162000	29.390000	0.000000	50.666217
