Time[sec]	Test_Cell_Temp[C]	Test_Cell_RH[%]	Phase_#	Dyno_Speed[mph]	Dyno_Tractive_Effort[N]	Accelerator_Pedal_Position[%]	HV_Battery_Current[A]	HV_Battery_Voltage[V]	HV_Battery_SOC[%]
-10.000	21.958	57.133	0.000	0.000	-11.219	0.000	0.071	-0.101	20.000
-9.900	21.957	57.132	0.000	0.000	-11.153	0.000	0.065	-0.079	20.000
-9.800	21.954	57.128	0.000	0.000	-11.147	0.000	0.068	-0.075	20.000
-9.700	21.954	57.126	0.000	0.000	-11.147	0.000	1.673	232.430	20.000
-9.600	21.954	57.126	0.000	0.000	-11.081	0.000	0.235	330.070	20.000
-9.500	21.954	57.127	0.000	0.000	-11.274	0.000	0.109	337.577	20.000
-9.400	21.954	57.126	0.000	0.000	-11.224	0.000	0.098	337.728	20.000
-9.300	21.955	57.126	0.000	0.000	-11.219	0.000	0.226	337.729	20.000
-9.200	21.954	57.125	0.000	0.000	-11.087	0.000	2.178	337.655	20.000
-9.100	21.953	57.125	0.000	0.000	-11.207	0.000	1.843	337.669	20.000
-9.000	21.951	57.121	0.000	0.000	-11.089	0.000	1.524	337.678	20.000
-8.900	21.950	57.119	0.000	0.000	-11.011	0.000	1.447	337.678	20.000
-8.800	21.949	57.119	0.000	0.000	-11.197	0.000	1.418	337.678	20.000
-8.700	21.951	57.118	0.000	0.000	-11.219	0.000	1.392	337.697	20.000
-8.600	21.951	57.118	0.000	0.000	-11.284	0.000	1.376	337.690	20.000
-8.500	21.949	57.118	0.000	0.000	-11.225	0.000	1.369	337.697	20.000
-8.400	21.951	57.118	0.000	0.000	-11.090	0.000	1.344	337.683	20.000
-8.300	21.947	57.117	0.000	0.000	-11.140	0.000	1.333	337.678	20.000
-8.200	21.945	57.115	0.000	0.000	-11.147	0.000	1.314	337.689	20.000
-8.100	21.944	57.114	0.000	0.000	-11.345	0.000	1.307	337.679	20.000
-8.000	21.944	57.115	0.000	0.000	-11.232	0.000	1.487	337.675	20.000
-7.900	21.944	57.114	0.000	0.000	-11.219	0.000	1.566	337.678	20.000
-7.800	21.944	57.115	0.000	0.000	-11.219	0.000	1.529	337.671	20.000
-7.700	21.944	57.115	0.000	0.000	-11.219	0.000	1.487	337.678	20.000
-7.600	21.944	57.115	0.000	0.000	-10.889	0.000	1.469	337.686	20.000
-7.500	21.944	57.115	0.000	0.000	-11.056	0.000	1.444	337.675	20.000
-7.400	21.942	57.112	0.000	0.000	-11.206	0.000	1.467	337.678	20.000
-7.300	21.942	57.112	0.000	0.000	-11.219	0.000	1.441	337.682	20.000
-7.200	21.941	57.114	0.000	0.000	-11.153	0.000	0.520	337.726	20.000
-7.100	21.941	57.113	0.000	0.000	-11.277	0.000	0.822	337.695	20.000
-7.000	21.942	57.113	0.000	0.000	-11.027	0.000	0.860	337.701	20.000
-6.900	21.941	57.114	0.000	0.000	-11.200	0.000	0.858	337.702	20.000
-6.800	21.942	57.112	0.000	0.000	-11.154	0.000	0.860	337.691	20.000
-6.700	21.940	57.112	0.000	0.000	-11.212	0.000	0.870	337.701	20.000
-6.600	21.936	57.112	0.000	0.000	-11.219	0.000	0.876	337.705	20.000
-6.500	21.935	57.114	0.000	0.000	-11.087	0.000	0.877	337.705	20.000
-6.400	21.935	57.112	0.000	0.000	-11.075	0.000	0.880	337.705	20.000
-6.300	21.935	57.112	0.000	0.000	-11.205	0.000	0.880	337.702	20.000
-6.200	21.935	57.112	0.000	0.000	-11.219	0.000	0.880	337.698	20.000
-6.100	21.935	57.113	0.000	0.000	-11.284	0.000	0.877	337.698	20.000
-6.000	21.936	57.113	0.000	0.000	-11.225	0.000	0.880	337.698	20.000
-5.900	21.937	57.114	0.000	0.000	-11.087	0.000	0.880	337.705	20.000
-5.800	21.935	57.115	0.000	0.000	-11.075	0.000	0.883	337.705	20.000
-5.700	21.932	57.116	0.000	0.000	-11.204	0.000	0.880	337.698	20.000
-5.600	21.931	57.118	0.000	0.000	-11.089	0.000	0.889	337.701	20.000
-5.500	21.931	57.118	0.000	0.000	-11.204	0.000	0.877	337.702	20.000
-5.400	21.931	57.118	0.000	0.000	-11.219	0.000	0.874	337.698	20.000
-5.300	21.930	57.118	0.000	0.000	-11.219	0.000	0.880	337.705	20.000
-5.200	21.931	57.118	0.000	0.000	-11.219	0.000	0.880	337.694	20.000
-5.100	21.931	57.117	0.000	0.000	-11.283	0.000	0.886	337.712	20.000
-5.000	21.929	57.120	0.000	0.000	-11.226	0.000	0.883	337.691	20.000
-4.900	21.928	57.120	0.000	0.000	-11.348	0.000	0.880	337.705	20.000
-4.800	21.927	57.120	0.000	0.000	-11.234	0.000	0.883	337.709	20.000
-4.700	21.926	57.119	0.000	0.000	-11.219	0.000	0.880	337.706	20.000
-4.600	21.926	57.120	0.000	0.000	-11.283	0.000	0.880	337.702	20.000
-4.500	21.927	57.120	0.000	0.000	-11.226	0.000	0.880	337.705	20.000
-4.400	21.928	57.122	0.000	0.000	-11.088	0.000	0.871	337.709	20.000
-4.300	21.928	57.121	0.000	0.000	-11.075	0.000	0.858	337.702	20.000
-4.200	21.928	57.124	0.000	0.000	-11.204	0.000	0.857	337.709	20.000
-4.100	21.923	57.127	0.000	0.000	-11.219	0.000	0.864	337.706	20.000
-4.000	21.922	57.127	0.000	0.000	-11.090	0.000	0.861	337.702	20.000
-3.900	21.923	57.128	0.000	0.000	-11.137	0.000	0.861	337.705	20.000
-3.800	21.922	57.129	0.000	0.000	-11.147	0.000	0.858	337.702	20.000
-3.700	21.922	57.129	0.000	0.000	-11.340	0.000	0.864	337.709	20.000
-3.600	21.923	57.131	0.000	0.000	-11.041	0.000	0.864	337.709	20.000
-3.500	21.922	57.131	0.000	0.000	-11.068	0.000	0.861	337.702	20.000
-3.400	21.920	57.136	0.000	0.000	-11.140	0.000	0.864	337.709	20.000
-3.300	21.919	57.138	0.000	0.000	-11.277	0.000	0.855	337.706	20.000
-3.200	21.919	57.138	0.000	0.000	-11.030	0.000	0.863	337.698	20.000
-3.100	21.918	57.140	0.000	0.000	-10.937	0.000	0.855	337.712	20.000
-3.000	21.919	57.140	0.000	0.000	-11.256	0.000	0.848	337.706	20.000
-2.900	21.919	57.139	0.000	0.000	-11.226	0.000	0.857	337.709	20.000
-2.800	21.917	57.139	0.000	0.000	-11.349	0.000	0.854	337.698	20.000
-2.700	21.918	57.139	0.000	0.000	-11.100	0.000	0.848	337.698	20.000
-2.600	21.917	57.143	0.000	0.000	-11.010	0.000	0.835	337.694	20.000
-2.500	21.914	57.150	0.000	0.000	-11.197	0.000	0.856	337.697	20.000
-2.400	21.914	57.151	0.000	0.000	-11.089	0.000	0.851	337.709	20.000
-2.300	21.912	57.152	0.000	0.000	-11.271	0.000	0.839	337.695	20.000
-2.200	21.914	57.153	0.000	0.000	-11.226	0.000	0.835	337.705	20.000
-2.100	21.913	57.153	0.000	0.000	-11.219	0.000	0.832	337.702	20.000
-2.000	21.914	57.153	0.000	0.000	-11.089	0.000	0.835	337.709	20.000
-1.900	21.913	57.154	0.000	0.000	-11.204	0.000	0.832	337.706	20.000
-1.800	21.912	57.161	0.000	0.000	-11.154	0.000	0.835	337.694	20.000
-1.700	21.911	57.167	0.000	0.000	-10.885	0.000	0.835	337.705	20.000
-1.600	21.911	57.169	0.000	0.000	-11.053	0.000	0.847	337.694	20.000
-1.500	21.909	57.170	0.000	0.000	-11.205	0.000	0.833	337.697	20.000
-1.400	21.909	57.170	0.000	0.000	-11.284	0.000	0.835	337.694	20.000
-1.300	21.910	57.170	0.000	0.000	-11.097	0.000	0.838	337.705	20.000
-1.200	21.909	57.170	0.000	0.000	-11.268	0.000	0.841	337.709	20.000
-1.100	21.910	57.169	0.000	0.000	-11.291	0.000	0.835	337.698	20.000
-1.000	21.906	57.173	0.000	0.000	-11.226	0.000	0.838	337.698	20.000
-0.900	21.906	57.182	0.000	0.000	-11.349	0.000	0.835	337.709	20.000
-0.800	21.906	57.186	0.000	0.000	-11.298	0.000	0.838	337.706	20.000
-0.700	21.906	57.185	0.000	0.000	-11.356	0.000	0.841	337.705	20.000
-0.600	21.906	57.186	0.000	0.000	-11.232	0.000	0.835	337.691	20.000
-0.500	21.906	57.187	0.000	0.000	-11.284	0.000	0.841	337.697	20.000
-0.400	21.906	57.185	0.000	0.000	-11.356	0.000	0.838	337.701	20.000
-0.300	21.905	57.186	0.000	0.000	-11.165	0.000	0.844	337.702	20.000
-0.200	21.904	57.192	0.000	0.000	-10.953	0.000	0.832	337.698	20.000
-0.100	21.900	57.202	0.000	0.000	-11.321	0.000	0.835	337.698	20.000
-0.000	21.901	57.204	0.000	0.000	-11.171	0.000	0.838	337.698	20.000
0.100	21.900	57.206	0.000	0.000	-11.147	0.000	0.832	337.705	20.000
0.200	21.900	57.205	0.000	0.000	-11.147	0.000	0.841	337.705	20.000
0.300	21.901	57.206	0.000	0.000	-11.147	0.000	0.844	337.709	20.000
0.400	21.901	57.206	0.000	0.000	-11.211	0.000	0.841	337.698	20.000
0.500	21.899	57.206	0.000	0.000	-11.090	0.000	0.832	337.709	20.000
0.600	21.900	57.209	0.000	0.000	-11.267	0.000	0.835	337.706	20.000
0.700	21.897	57.218	0.000	0.000	-11.162	0.000	0.832	337.702	20.000
0.800	21.899	57.224	0.000	0.000	-11.147	0.000	0.816	337.702	20.000
0.900	21.898	57.224	0.000	0.000	-11.147	0.000	0.815	337.694	20.000
1.000	21.896	57.225	0.888	0.000	-11.147	0.000	0.815	337.701	20.000
1.100	21.897	57.224	1.000	0.000	-11.270	0.000	0.825	337.690	20.000
1.200	21.897	57.225	1.000	0.000	-11.102	0.000	0.810	337.708	20.000
1.300	21.898	57.226	1.000	0.000	-11.010	0.000	0.815	337.709	20.000
1.400	21.894	57.230	1.000	0.000	-11.262	0.000	0.822	337.695	20.000
1.500	21.893	57.240	1.000	0.000	-11.226	0.000	0.822	337.708	20.000
1.600	21.892	57.246	1.000	0.000	-11.089	0.000	0.825	337.695	20.000
1.700	21.891	57.248	1.000	0.000	-11.204	0.000	0.825	337.701	20.000
1.800	21.892	57.250	1.000	0.000	-11.155	0.000	0.822	337.713	20.000
1.900	21.893	57.248	1.000	0.000	-11.210	0.000	0.810	337.706	20.000
2.000	21.893	57.250	1.000	0.000	-11.155	0.000	0.988	337.705	20.000
2.100	21.893	57.249	1.000	0.000	-11.147	0.000	0.929	337.709	20.000
2.200	21.893	57.251	1.000	0.000	-11.211	0.000	0.922	337.698	20.000
2.300	21.890	57.263	1.000	0.000	-11.347	0.000	1.181	337.698	20.000
2.400	21.889	57.272	1.000	0.000	-10.852	0.000	1.459	337.668	20.000
2.500	21.888	57.274	1.000	0.000	-11.042	0.000	1.417	337.678	20.000
2.600	21.889	57.274	1.000	0.000	-11.138	0.000	0.926	337.704	20.000
2.700	21.888	57.275	1.000	0.000	-11.147	0.000	0.823	337.705	20.000
2.800	21.889	57.275	1.000	0.000	-11.147	0.000	0.819	337.691	20.000
2.900	21.888	57.274	1.000	0.000	-11.082	0.000	0.819	337.705	20.000
3.000	21.887	57.279	1.000	0.000	-11.202	0.000	0.800	337.702	20.000
3.100	21.886	57.292	1.000	0.000	-11.091	0.000	0.796	337.698	20.000
3.200	21.883	57.298	1.000	0.000	-11.139	0.000	0.796	337.698	20.000
3.300	21.884	57.300	1.000	0.000	-11.147	0.000	0.796	337.701	20.000
3.400	21.885	57.302	1.000	0.000	-11.337	0.000	0.796	337.702	20.000
3.500	21.883	57.300	1.000	0.000	-11.108	0.000	0.799	337.705	20.000
3.600	21.883	57.300	1.000	0.000	-11.011	0.000	0.799	337.702	20.000
3.700	21.883	57.302	1.000	0.000	-11.130	0.000	0.799	337.705	20.000
3.800	21.884	57.302	1.000	0.000	-11.147	0.000	0.799	337.728	20.000
3.900	21.880	57.315	1.000	0.000	-11.147	0.000	0.793	337.732	20.000
4.000	21.880	57.325	1.000	0.000	-11.083	0.000	0.799	337.703	20.000
4.100	21.880	57.328	1.000	0.000	-11.011	0.000	0.799	337.698	20.000
4.200	21.880	57.329	1.000	0.000	-11.003	0.000	0.793	337.705	20.000
4.300	21.880	57.331	1.000	0.000	-11.256	0.000	0.793	337.705	20.000
4.400	21.880	57.331	1.000	0.000	-11.227	0.000	0.793	337.691	20.000
4.500	21.880	57.332	1.000	0.000	-11.283	0.000	0.799	337.705	20.000
4.600	21.880	57.332	1.000	0.000	-11.291	0.000	0.799	337.716	20.000
4.700	21.879	57.346	1.000	0.000	-11.353	0.000	0.790	337.706	20.000
4.800	21.877	57.354	1.000	0.000	-11.236	0.000	0.799	337.728	20.000
4.900	21.878	57.357	1.000	0.000	-10.963	0.000	0.799	337.718	20.000
5.000	21.878	57.358	1.000	0.000	-10.994	0.000	0.799	337.717	20.000
5.100	21.878	57.358	1.000	0.000	-11.064	0.000	0.802	337.717	20.000
5.200	21.876	57.358	1.000	0.000	-11.138	0.000	0.799	337.710	20.000
5.300	21.877	57.358	1.000	0.000	-11.210	0.000	0.793	337.717	20.000
5.400	21.877	57.358	1.000	0.000	-11.219	0.000	0.793	337.713	20.000
5.500	21.876	57.369	1.000	0.000	-11.219	0.000	0.802	337.702	20.000
5.600	21.875	57.383	1.000	0.000	-11.155	0.000	0.799	337.720	20.000
5.700	21.873	57.389	1.000	0.000	-11.019	0.000	0.799	337.714	20.000
5.800	21.873	57.389	1.000	0.000	-10.939	0.000	0.796	337.728	20.000
5.900	21.873	57.389	1.000	0.000	-11.186	0.000	0.784	337.725	20.000
6.000	21.873	57.389	1.000	0.000	-11.091	0.000	0.780	337.725	20.000
6.100	21.873	57.391	1.000	0.000	-11.199	0.000	0.795	337.729	20.000
6.200	21.873	57.391	1.000	0.000	-11.031	0.000	0.778	337.721	20.000
6.300	21.871	57.407	1.000	0.000	-11.065	0.000	0.777	337.721	20.000
6.400	21.870	57.417	1.000	0.000	-11.138	0.000	0.774	337.721	20.000
6.500	21.870	57.419	1.000	0.000	-11.210	0.000	0.780	337.691	20.000
6.600	21.869	57.420	1.000	0.000	-11.156	0.000	0.780	337.690	20.000
6.700	21.868	57.419	1.000	0.000	-11.337	0.000	0.774	337.716	20.000
6.800	21.869	57.420	1.000	0.000	-11.172	0.000	0.779	337.728	20.000
6.900	21.869	57.419	1.000	0.000	-11.147	0.000	0.780	337.729	20.000
7.000	21.869	57.420	1.000	0.000	-11.398	0.000	0.780	337.729	20.000
7.100	21.867	57.427	1.000	0.000	-11.245	0.000	0.777	337.707	20.000
7.200	21.866	57.442	1.000	0.000	-11.155	0.000	0.780	337.728	20.000
7.300	21.866	57.448	1.000	0.000	-11.210	0.000	0.780	337.706	20.000
7.400	21.866	57.449	1.000	0.000	-11.219	0.000	0.780	337.716	20.000
7.500	21.867	57.450	1.000	0.000	-11.219	0.000	0.774	337.695	20.000
7.600	21.866	57.449	1.000	0.000	-11.156	0.000	0.816	337.716	20.000
7.700	21.865	57.449	1.000	0.000	-11.147	0.000	0.895	337.706	20.000
7.800	21.864	57.451	1.000	0.045	-11.084	0.000	1.291	337.694	20.000
7.900	21.862	57.461	1.000	0.102	-5.190	0.000	1.751	337.668	20.000
8.000	21.863	57.475	1.000	0.100	-10.388	0.000	2.160	337.652	20.000
8.100	21.863	57.477	1.000	0.100	8.779	0.000	2.165	337.651	20.000
8.200	21.862	57.477	1.000	0.116	10.969	0.000	2.176	337.651	20.000
8.300	21.863	57.479	1.000	0.101	-8.157	0.000	2.134	337.651	20.000
8.400	21.862	57.481	1.000	0.089	5.761	0.622	2.144	337.655	20.000
8.500	21.863	57.480	1.000	0.098	-7.806	1.717	2.191	337.651	20.000
8.600	21.863	57.478	1.000	0.099	39.493	4.107	2.389	337.651	20.000
8.700	21.861	57.484	1.000	0.180	32.745	7.206	2.644	337.633	20.000
8.800	21.860	57.498	1.000	0.129	376.791	9.432	3.099	337.613	20.000
8.900	21.859	57.505	1.000	0.228	125.780	12.916	3.571	337.583	20.000
9.000	21.858	57.508	1.000	0.185	1009.441	14.711	4.053	337.574	20.000
9.100	21.857	57.509	1.000	0.110	156.793	14.961	4.984	337.537	20.000
9.200	21.858	57.508	1.000	0.263	294.167	17.144	5.326	337.505	20.000
9.300	21.858	57.509	1.000	0.158	1773.172	17.717	5.333	337.504	20.000
9.400	21.858	57.510	1.000	0.189	274.876	18.651	5.899	337.474	20.000
9.500	21.856	57.517	1.000	0.314	495.816	21.390	5.727	337.480	20.000
9.600	21.854	57.531	1.000	0.250	2148.504	24.229	6.321	337.455	20.000
9.700	21.854	57.537	1.000	0.160	2757.256	27.920	7.856	337.387	20.000
9.800	21.854	57.539	1.000	0.104	2963.585	30.610	8.335	337.361	20.000
9.900	21.854	57.540	1.000	0.269	409.910	31.706	8.029	337.367	20.000
10.000	21.853	57.539	1.000	0.464	1081.946	32.797	7.770	337.379	20.000
10.100	21.854	57.540	1.000	0.483	2995.107	33.071	9.076	337.335	20.000
10.200	21.854	57.538	1.000	0.438	3321.437	33.071	10.470	337.273	20.000
10.300	21.854	57.542	1.000	0.390	3279.179	33.691	10.496	337.263	20.000
10.400	21.853	57.558	1.000	0.301	3439.014	34.777	10.124	337.263	20.000
10.500	21.851	57.565	1.000	0.243	3519.437	35.660	9.685	337.293	20.000
10.600	21.851	57.566	1.000	0.201	3584.714	36.762	9.231	337.309	20.000
10.700	21.851	57.568	1.000	0.172	3624.490	38.538	9.198	337.302	20.000
10.800	21.851	57.569	1.000	0.450	728.719	40.526	9.348	337.291	20.000
10.900	21.848	57.568	1.000	0.620	2347.222	42.486	9.743	337.272	20.000
11.000	21.850	57.569	1.000	0.681	3599.430	44.452	11.873	337.178	20.000
11.100	21.848	57.574	1.000	0.729	3797.343	47.988	14.046	337.100	20.000
11.200	21.847	57.588	1.000	0.777	4182.587	52.782	15.012	337.037	20.000
11.300	21.847	57.594	1.000	0.868	4401.876	55.485	16.403	336.972	20.000
11.400	21.846	57.597	1.000	1.009	4604.358	56.840	18.154	336.891	20.000
11.500	21.845	57.597	1.000	1.115	4738.608	57.087	19.241	336.846	20.000
11.600	21.845	57.598	1.000	1.210	4756.017	57.087	20.156	336.784	20.000
11.700	21.846	57.598	1.000	1.349	4756.604	57.087	20.618	336.759	20.000
11.800	21.846	57.597	1.000	1.454	4769.087	57.087	21.507	336.710	20.000
11.900	21.845	57.599	1.000	1.597	4806.658	57.087	22.087	336.678	20.000
12.000	21.844	57.612	1.000	1.703	4834.579	57.087	23.173	336.640	20.000
12.100	21.842	57.622	1.000	1.842	4838.200	57.087	24.145	336.579	20.000
12.200	21.842	57.625	1.000	1.988	4842.643	57.087	25.151	336.532	20.000
12.300	21.843	57.627	1.000	2.094	4850.053	57.087	26.119	336.482	20.000
12.400	21.843	57.628	1.000	2.233	4838.899	57.087	26.961	336.431	20.000
12.500	21.843	57.627	1.000	2.333	4830.650	57.087	27.758	336.399	20.000
12.600	21.843	57.628	1.000	2.475	4822.892	57.087	28.816	336.342	20.000
12.700	21.843	57.632	1.000	2.580	4827.168	57.087	29.817	336.300	20.000
12.800	21.839	57.646	1.000	2.717	4840.240	57.087	30.768	336.256	20.000
12.900	21.840	57.655	1.000	2.822	4837.750	57.087	31.442	336.217	20.000
13.000	21.838	57.659	1.000	2.962	4837.345	57.087	32.121	336.178	20.000
13.100	21.839	57.658	1.000	3.066	4846.945	57.087	33.208	336.124	20.000
13.200	21.839	57.657	1.000	3.205	4848.641	57.087	34.145	336.081	20.000
13.300	21.839	57.659	1.000	3.309	4829.363	57.087	34.984	336.028	20.000
13.400	21.841	57.659	1.000	3.451	4812.114	57.087	36.057	335.977	20.000
13.500	21.840	57.662	1.000	3.556	4809.537	57.087	36.977	335.930	20.000
13.600	21.838	57.674	1.000	3.696	4810.731	57.087	37.911	335.873	20.000
13.700	21.838	57.684	1.000	3.801	4814.663	57.087	38.694	335.821	20.000
13.800	21.837	57.688	1.000	3.941	4810.487	57.087	39.610	335.774	20.000
13.900	21.837	57.688	1.000	4.048	4800.467	57.087	40.388	335.747	20.000
14.000	21.836	57.689	1.000	4.145	4787.930	57.087	40.867	335.719	20.000
14.100	21.837	57.689	1.000	4.279	4790.724	57.707	41.725	335.663	20.000
14.200	21.836	57.689	1.000	4.426	4819.774	57.874	42.657	335.615	20.000
14.300	21.837	57.691	1.000	4.532	4854.342	57.874	44.029	335.547	20.000
14.400	21.835	57.707	1.000	4.670	4856.983	57.874	45.096	335.485	20.000
14.500	21.834	57.718	1.000	4.779	4855.216	58.801	46.108	335.441	20.000
14.600	21.834	57.720	1.000	4.919	4860.706	59.671	47.103	335.365	20.000
14.700	21.834	57.721	1.000	5.063	4877.068	60.772	48.493	335.302	20.000
14.800	21.833	57.721	1.000	5.212	4927.915	61.024	50.391	335.207	20.000
14.900	21.834	57.721	1.000	5.356	4980.994	62.536	52.047	335.121	20.000
15.000	21.833	57.721	1.000	5.502	5029.846	63.912	53.166	335.066	20.000
15.100	21.832	57.722	1.000	5.689	5084.808	64.781	54.845	334.986	20.000
15.200	21.830	57.733	1.000	5.841	5147.500	64.961	57.163	334.860	20.000
15.300	21.828	57.746	1.000	6.030	5187.000	64.961	58.927	334.775	20.000
15.400	21.828	57.750	1.000	6.182	5204.631	64.961	60.986	334.653	20.000
15.500	21.828	57.752	1.000	6.369	5208.260	64.961	62.703	334.573	20.000
15.600	21.828	57.753	1.000	6.525	5219.801	64.961	64.003	334.492	20.000
15.700	21.828	57.753	1.000	6.714	5213.048	64.961	65.501	334.418	20.000
15.800	21.828	57.754	1.000	6.869	5199.268	64.961	67.241	334.329	20.000
15.900	21.827	57.757	1.000	7.055	5249.309	64.961	68.247	334.277	20.000
16.000	21.825	57.766	1.000	7.206	5214.139	64.961	69.009	334.211	20.000
16.100	21.825	57.777	1.000	7.390	5176.501	64.961	70.155	334.172	20.000
16.200	21.824	57.780	1.000	7.548	5223.138	64.961	71.979	334.059	20.000
16.300	21.825	57.780	1.000	7.694	5210.926	64.961	72.760	334.023	20.000
16.400	21.825	57.782	1.000	7.885	5174.267	64.961	74.158	333.938	20.000
16.500	21.823	57.781	1.000	8.081	5225.009	65.899	76.256	333.830	20.000
16.600	21.825	57.780	1.000	8.237	5224.011	66.142	76.910	333.776	20.000
16.700	21.825	57.781	1.000	8.382	5171.543	66.769	78.595	333.689	20.000
16.800	21.823	57.787	1.000	8.566	5185.948	67.870	80.873	333.559	20.000
16.900	21.822	57.801	1.000	8.763	5269.496	68.110	83.501	333.430	20.000
17.000	21.821	57.807	1.000	8.954	5320.407	68.110	86.406	333.277	20.000
17.100	21.820	57.807	1.000	9.152	5318.290	68.110	87.699	333.225	20.000
17.200	21.821	57.809	1.000	9.308	5304.189	68.110	90.160	333.092	20.000
17.300	21.822	57.808	1.000	9.501	5302.338	68.110	92.750	332.962	20.000
17.400	21.821	57.809	1.000	9.692	5241.997	68.110	97.046	332.715	20.000
17.500	21.820	57.810	1.000	9.888	5353.283	68.110	102.669	332.460	20.000
17.600	21.818	57.819	1.000	10.042	5351.506	68.110	104.298	332.372	20.000
17.700	21.817	57.830	1.000	10.230	5276.904	68.110	105.985	332.259	20.000
17.800	21.816	57.831	1.000	10.423	5269.456	68.110	108.889	332.102	20.000
17.900	21.818	57.834	1.000	10.617	5418.494	68.110	109.971	332.045	20.000
18.000	21.818	57.834	1.000	10.811	5436.053	68.110	106.575	332.161	20.000
18.100	21.818	57.832	1.000	10.969	5278.582	68.110	106.298	332.163	20.000
18.200	21.818	57.834	1.000	11.158	5289.112	68.110	107.530	332.068	20.000
18.300	21.817	57.834	1.000	11.351	5360.319	68.110	109.221	331.992	20.000
18.400	21.816	57.839	1.000	11.503	5273.166	68.110	109.402	331.959	20.000
18.500	21.815	57.850	1.000	11.689	5164.056	68.110	112.808	331.763	20.000
18.600	21.814	57.857	1.000	11.885	5275.145	68.110	118.711	331.483	20.000
18.700	21.814	57.859	1.000	12.078	5373.522	68.110	120.273	331.405	20.000
18.800	21.814	57.861	1.000	12.233	5281.483	68.110	119.940	331.384	20.000
18.900	21.813	57.859	1.000	12.422	5253.542	68.110	122.556	331.246	20.000
19.000	21.813	57.860	1.000	12.624	5377.025	68.110	122.177	331.239	20.000
19.100	21.815	57.861	1.000	12.780	5345.736	68.110	119.954	331.313	20.000
19.200	21.813	57.868	1.000	12.967	5202.915	68.110	119.833	331.306	20.000
19.300	21.810	57.876	1.000	13.161	5267.356	68.110	122.446	331.168	20.000
19.400	21.809	57.880	1.000	13.317	5319.508	68.110	122.812	331.128	20.000
19.500	21.811	57.881	1.000	13.506	5211.872	68.110	122.936	331.101	20.000
19.600	21.810	57.881	1.000	13.658	5219.618	68.110	126.594	330.889	20.000
19.700	21.809	57.880	1.000	13.843	5301.564	68.110	128.187	330.815	20.000
19.800	21.809	57.881	1.000	14.001	5245.156	68.110	127.816	330.808	20.000
19.900	21.810	57.883	1.000	14.192	5199.820	68.110	130.341	330.669	20.000
20.000	21.810	57.883	1.000	14.386	5281.348	68.110	131.389	330.598	20.000
20.100	21.809	57.895	1.000	14.541	5281.262	68.110	130.594	330.606	20.000
20.200	21.808	57.899	1.000	14.730	5213.025	68.110	131.601	330.544	20.000
20.300	21.807	57.902	1.000	14.881	5240.694	68.110	132.499	330.482	20.000
20.400	21.808	57.902	1.000	15.024	5235.765	68.738	133.144	330.434	20.000
20.500	21.808	57.902	1.000	15.208	5183.233	68.898	134.387	330.347	20.000
20.600	21.808	57.903	1.000	15.366	5213.234	68.898	136.316	330.244	20.000
20.700	21.808	57.903	1.000	15.554	5231.003	68.898	137.432	330.157	20.000
20.800	21.807	57.908	1.000	15.710	5212.757	68.898	138.503	330.086	20.000
20.900	21.803	57.918	1.000	15.857	5204.649	68.898	139.657	330.002	20.000
21.000	21.802	57.922	1.000	16.032	5180.080	68.898	141.082	329.917	20.000
21.100	21.802	57.922	1.000	16.197	5183.452	68.898	142.013	329.849	20.000
21.200	21.801	57.924	1.000	16.347	5186.464	68.898	143.165	329.776	20.000
21.300	21.802	57.923	1.000	16.538	5185.348	68.898	145.330	329.657	20.000
21.400	21.800	57.924	1.000	16.692	5209.231	68.898	145.983	329.611	20.000
21.500	21.801	57.924	1.000	16.883	5171.472	68.898	146.631	329.565	20.000
21.600	21.801	57.924	1.000	17.033	5156.266	68.898	148.754	329.423	20.000
21.700	21.799	57.932	1.000	17.178	5203.233	68.898	149.783	329.367	20.000
21.800	21.800	57.940	1.000	17.373	5183.438	68.898	150.604	329.298	20.000
21.900	21.799	57.939	1.000	17.527	5172.418	68.898	151.532	329.239	20.000
22.000	21.799	57.940	1.000	17.671	5140.394	68.898	153.622	329.095	20.000
22.100	21.799	57.941	1.000	17.820	5164.291	68.898	154.643	329.030	20.000
22.200	21.799	57.941	1.000	18.011	5175.034	68.898	155.229	328.982	20.000
22.300	21.799	57.941	1.000	18.163	5147.129	68.898	156.605	328.907	20.000
22.400	21.797	57.943	1.000	18.309	5167.178	68.898	157.318	328.832	20.000
22.500	21.794	57.948	1.000	18.453	5123.271	68.898	158.400	328.762	20.000
22.600	21.792	57.952	1.000	18.602	5134.284	68.898	159.595	328.700	20.000
22.700	21.793	57.953	1.000	18.744	5142.550	68.898	160.118	328.642	20.000
22.800	21.792	57.955	1.000	18.940	5125.062	68.898	161.529	328.543	20.000
22.900	21.792	57.954	1.000	19.089	5119.487	68.898	162.448	328.474	20.000
23.000	21.793	57.952	1.000	19.237	5072.436	68.898	163.297	328.397	20.000
23.100	21.792	57.954	1.000	19.383	5090.846	68.898	163.998	328.349	20.000
23.200	21.792	57.953	1.000	19.526	5088.532	68.898	165.216	328.248	20.000
23.300	21.789	57.956	1.000	19.676	5113.150	69.831	166.412	328.180	20.000
23.400	21.789	57.961	1.000	19.820	5073.401	71.018	166.562	328.173	20.000
23.500	21.789	57.961	1.000	19.968	5093.340	71.887	169.141	328.009	20.000
23.600	21.789	57.961	1.000	20.113	5146.228	72.987	172.208	327.834	20.000
23.700	21.789	57.961	1.000	20.304	5190.183	73.228	178.042	327.535	20.000
23.800	21.789	57.961	1.000	20.456	5206.235	73.228	182.699	327.330	20.000
23.900	21.787	57.962	1.000	20.648	5202.961	73.228	185.071	327.182	20.000
24.000	21.788	57.962	1.000	20.797	5258.359	73.228	186.493	327.087	20.000
24.100	21.783	57.964	1.000	20.992	5246.530	73.228	186.420	327.060	20.000
24.200	21.781	57.967	1.000	21.141	5221.754	73.228	187.024	327.007	20.000
24.300	21.782	57.966	1.000	21.283	5193.184	73.228	187.447	326.963	20.000
24.400	21.781	57.966	1.000	21.477	5221.028	73.228	187.431	326.913	20.000
24.500	21.781	57.968	1.000	21.628	5189.192	73.228	188.012	326.882	20.000
24.600	21.781	57.966	1.000	21.772	5190.375	73.228	189.717	326.762	20.000
24.700	21.782	57.966	1.000	21.963	5168.981	73.228	190.124	326.708	20.000
24.800	21.781	57.966	1.000	22.113	5189.081	73.228	190.785	326.647	19.611
24.900	21.777	57.965	1.000	22.255	5168.265	73.228	191.617	326.573	19.500
25.000	21.775	57.965	1.000	22.406	5173.403	73.228	193.431	326.477	19.500
25.100	21.776	57.961	1.000	22.554	5155.658	73.228	194.092	326.418	19.500
25.200	21.774	57.963	1.000	22.699	5169.880	73.228	193.949	326.374	19.500
25.300	21.776	57.961	1.000	22.893	5147.298	73.228	195.094	326.295	19.500
25.400	21.774	57.962	1.000	23.040	5139.264	73.228	196.891	326.205	19.500
25.500	21.775	57.961	1.000	23.189	5120.701	73.228	196.369	326.201	19.500
25.600	21.775	57.962	1.000	23.333	5131.051	73.228	197.439	326.124	19.500
25.700	21.772	57.957	1.000	23.481	5138.304	73.228	198.731	326.039	19.500
25.800	21.768	57.951	1.000	23.625	5110.695	73.228	200.066	325.961	19.500
25.900	21.766	57.949	1.000	23.776	5101.198	73.228	200.460	325.879	19.500
26.000	21.766	57.948	1.000	23.910	5113.246	73.228	201.632	325.797	19.500
26.100	21.766	57.948	1.000	24.064	5117.841	73.228	202.824	325.727	19.500
26.200	21.766	57.948	1.000	24.210	5077.441	73.849	203.533	325.661	19.500
26.300	21.766	57.948	1.000	24.356	5093.795	74.016	205.293	325.555	19.500
26.400	21.767	57.947	1.000	24.504	5129.574	74.016	208.612	325.369	19.500
26.500	21.764	57.943	1.000	24.693	5145.410	74.016	212.476	325.164	19.500
26.600	21.757	57.932	1.000	24.845	5160.461	74.016	214.031	325.071	19.500
26.700	21.757	57.926	1.000	24.991	5182.948	74.934	217.061	324.912	19.500
26.800	21.755	57.924	1.000	25.141	5193.994	75.197	218.204	324.816	19.500
26.900	21.755	57.925	1.000	25.290	5174.338	75.197	218.260	324.793	19.500
27.000	21.756	57.926	1.000	25.432	5171.813	75.197	217.438	324.774	19.500
27.100	21.756	57.925	1.000	25.625	5139.582	75.197	217.774	324.736	19.500
27.200	21.756	57.923	1.000	25.773	5127.861	75.820	219.174	324.649	19.500
27.300	21.752	57.912	1.000	25.919	5143.482	75.984	219.560	324.583	19.500
27.400	21.746	57.896	1.000	26.067	5121.039	75.984	221.308	324.476	19.500
27.500	21.746	57.890	1.000	26.216	5126.873	75.984	224.039	324.333	19.500
27.600	21.744	57.890	1.000	26.358	5147.917	75.984	223.797	324.304	19.500
27.700	21.744	57.890	1.000	26.508	5132.029	75.984	223.884	324.281	19.500
27.800	21.745	57.890	1.000	26.658	5093.170	77.539	224.664	324.213	19.500
27.900	21.745	57.890	1.000	26.803	5126.382	77.953	227.334	324.047	19.500
28.000	21.745	57.890	1.000	26.950	5157.148	77.953	229.197	323.944	19.500
28.100	21.743	57.884	1.000	27.097	5118.670	77.953	231.882	323.795	19.500
28.200	21.738	57.864	1.000	27.284	5145.017	78.864	234.368	323.642	19.500
28.300	21.735	57.858	1.000	27.434	5208.812	79.134	234.076	323.621	19.500
28.400	21.734	57.854	1.000	27.538	5138.025	79.134	234.741	323.546	19.500
28.500	21.737	57.851	1.000	27.725	5109.542	79.134	237.930	323.367	19.500
28.600	21.735	57.852	1.000	27.876	5194.251	79.757	238.558	323.311	19.500
28.700	21.733	57.850	1.000	28.021	5165.935	79.921	238.343	323.302	19.500
28.800	21.734	57.851	1.000	28.166	5102.476	79.921	240.756	323.149	19.500
28.900	21.731	57.841	1.000	28.312	5193.175	79.921	243.080	323.020	19.500
29.000	21.725	57.822	1.000	28.463	5210.805	79.921	242.902	322.981	19.500
29.100	21.722	57.815	1.000	28.609	5090.495	80.852	243.663	322.917	19.500
29.200	21.721	57.812	1.000	28.757	5141.938	83.595	246.329	322.765	19.500
29.300	21.723	57.812	1.000	28.946	5204.243	84.252	250.150	322.545	19.500
29.400	21.721	57.811	1.000	29.094	5144.907	84.252	258.597	322.129	19.500
29.500	21.721	57.811	1.000	29.241	5213.337	84.252	265.042	321.795	19.500
29.600	21.721	57.811	1.000	29.437	5307.033	84.869	266.307	321.713	19.500
29.700	21.721	57.808	1.000	29.582	5241.107	86.593	266.330	321.688	19.500
29.800	21.711	57.791	1.000	29.730	5237.988	87.008	265.481	321.705	19.500
29.900	21.708	57.777	1.000	29.874	5243.989	87.911	264.391	321.684	19.500
30.000	21.707	57.773	1.000	30.024	5195.233	91.273	265.098	321.639	19.500
30.100	21.705	57.771	1.000	30.215	5213.315	93.061	264.668	321.600	19.500
30.200	21.705	57.772	1.000	30.365	5202.013	93.307	265.115	321.561	19.500
30.300	21.705	57.771	1.000	30.509	5172.768	93.307	265.424	321.507	19.500
30.400	21.704	57.772	1.000	30.656	5195.133	93.307	265.737	321.461	19.500
30.500	21.702	57.764	1.000	30.805	5160.673	93.307	265.111	321.436	19.500
30.600	21.693	57.742	1.000	30.950	5150.328	93.307	265.665	321.380	19.500
30.700	21.689	57.735	1.000	31.096	5184.281	93.307	264.916	321.388	19.500
30.800	21.689	57.731	1.000	31.240	5115.490	93.924	265.164	321.347	19.108
30.900	21.688	57.731	1.000	31.389	5101.488	95.012	265.408	321.294	19.000
31.000	21.686	57.731	1.000	31.519	5136.707	95.276	265.343	321.273	19.000
31.100	21.688	57.731	1.000	31.680	5077.773	95.276	265.257	321.231	19.000
31.200	21.686	57.729	1.000	31.822	5070.417	95.894	265.487	321.192	19.000
31.300	21.688	57.730	1.000	31.928	5090.793	96.063	265.032	321.172	19.000
31.400	21.679	57.716	1.000	32.069	5021.714	96.989	264.886	321.152	19.000
31.500	21.673	57.702	1.000	32.171	5030.185	97.862	265.080	321.104	19.000
31.600	21.672	57.698	1.000	32.310	5020.426	98.964	265.088	321.079	19.000
31.700	21.670	57.697	1.000	32.412	4983.603	99.213	265.035	321.026	19.000
31.800	21.670	57.696	1.000	32.559	4987.287	99.213	265.088	321.027	19.000
31.900	21.670	57.695	1.000	32.659	4944.480	99.836	265.293	320.983	19.000
32.000	21.669	57.695	1.000	32.801	4945.869	100.000	264.819	320.969	19.000
32.100	21.666	57.693	1.000	32.906	4945.839	100.000	264.973	320.939	19.000
32.200	21.656	57.678	1.000	33.003	4886.322	100.000	264.877	320.901	19.000
32.300	21.651	57.671	1.000	33.145	4920.491	100.000	265.112	320.862	19.000
32.400	21.650	57.667	1.000	33.247	4879.274	100.000	264.844	320.846	19.000
32.500	21.649	57.667	1.000	33.344	4855.757	100.000	265.285	320.790	19.000
32.600	21.650	57.667	1.000	33.442	4888.245	100.000	265.507	320.735	19.000
32.700	21.648	57.667	1.000	33.539	4826.047	100.000	264.754	320.747	19.000
32.800	21.649	57.667	1.000	33.634	4833.606	100.000	265.056	320.711	19.000
32.900	21.647	57.666	1.000	33.734	4831.653	100.000	264.784	320.698	19.000
33.000	21.639	57.658	1.000	33.835	4784.195	100.000	264.863	320.668	19.000
33.100	21.629	57.649	1.000	33.928	4800.086	100.000	264.756	320.640	19.000
33.200	21.627	57.644	1.000	34.028	4741.388	100.000	264.570	320.621	19.000
33.300	21.626	57.644	1.000	34.125	4767.997	100.000	265.161	320.557	19.000
33.400	21.626	57.644	1.000	34.222	4772.210	100.000	264.588	320.543	19.000
33.500	21.626	57.643	1.000	34.317	4726.523	100.000	265.298	320.483	19.000
33.600	21.627	57.643	1.000	34.374	4746.739	100.000	264.841	320.473	19.000
33.700	21.625	57.641	1.000	34.464	4696.825	100.000	265.156	320.435	19.000
33.800	21.613	57.638	1.000	34.562	4709.067	100.000	264.973	320.404	19.000
33.900	21.608	57.635	1.000	34.663	4712.024	100.000	265.172	320.380	19.000
34.000	21.606	57.635	1.000	34.715	4679.411	100.000	265.522	320.346	19.000
34.100	21.606	57.633	1.000	34.809	4701.122	100.000	264.899	320.329	19.000
34.200	21.603	57.633	1.000	34.864	4647.991	100.000	265.403	320.292	19.000
34.300	21.606	57.633	1.000	34.956	4658.521	100.000	264.927	320.279	19.000
34.400	21.606	57.632	1.000	35.053	4658.111	100.000	264.456	320.282	19.000
34.500	21.606	57.632	1.000	35.108	4624.542	100.000	265.077	320.215	19.000
34.600	21.597	57.631	1.000	35.197	4650.986	100.000	265.101	320.172	19.000
34.700	21.585	57.626	1.000	35.252	4595.653	100.000	264.835	320.173	19.000
34.800	21.582	57.624	1.000	35.304	4617.137	100.000	265.400	320.103	19.000
34.900	21.580	57.624	1.000	35.395	4615.309	100.000	264.826	320.111	19.000
35.000	21.578	57.624	1.000	35.447	4581.297	100.000	264.937	320.089	19.000
35.100	21.578	57.622	1.000	35.539	4608.998	100.000	265.232	320.066	19.000
35.200	21.580	57.623	1.000	35.591	4569.612	100.000	265.600	320.006	19.000
35.300	21.579	57.623	1.000	35.641	4585.678	100.000	264.808	320.013	19.000
35.400	21.566	57.625	1.000	35.733	4552.892	100.000	265.283	319.955	19.000
35.500	21.557	57.630	1.000	35.787	4558.567	100.000	265.411	319.915	19.000
35.600	21.555	57.631	1.000	35.836	4567.893	100.000	265.329	319.891	19.000
35.700	21.554	57.631	1.000	35.928	4529.814	100.000	265.470	319.872	19.000
35.800	21.554	57.631	1.000	35.981	4558.754	100.000	265.887	319.823	19.000
35.900	21.554	57.631	1.000	36.033	4519.435	100.000	265.857	319.791	19.000
36.000	21.553	57.631	1.000	36.080	4529.933	100.000	265.392	319.785	19.000
36.100	21.551	57.629	1.000	36.129	4523.363	100.000	265.674	319.756	19.000
36.200	21.547	57.633	1.000	36.219	4504.553	100.000	265.907	319.721	19.000
36.300	21.533	57.641	1.000	36.277	4532.455	100.000	266.227	319.683	19.000
36.400	21.528	57.649	1.000	36.322	4485.262	100.000	265.118	319.702	19.000
36.500	21.528	57.650	1.000	36.371	4501.096	100.000	265.530	319.667	19.000
36.600	21.529	57.650	1.000	36.425	4476.639	100.000	266.114	319.610	19.000
36.700	21.529	57.650	1.000	36.473	4489.628	100.000	265.840	319.577	19.000
36.800	21.527	57.650	1.000	36.521	4475.268	100.000	265.502	319.579	18.603
36.900	21.528	57.650	1.000	36.573	4445.388	100.000	265.320	319.546	18.500
37.000	21.516	57.662	1.000	36.620	4480.410	100.000	265.637	319.515	18.500
37.100	21.505	57.675	1.000	36.667	4452.257	100.000	265.998	319.480	18.500
37.200	21.501	57.680	1.000	36.713	4478.987	100.000	266.231	319.442	18.500
37.300	21.499	57.682	1.000	36.763	4430.914	100.000	265.928	319.429	18.500
37.400	21.500	57.681	1.000	36.812	4441.720	100.000	265.754	319.395	18.500
37.500	21.500	57.682	1.000	36.863	4445.893	100.000	265.969	319.364	18.500
37.600	21.500	57.682	1.000	36.910	4423.334	100.000	266.315	319.314	18.500
37.700	21.500	57.681	1.000	36.959	4449.048	100.000	266.028	319.308	18.500
37.800	21.498	57.687	1.000	37.006	4406.200	100.000	265.603	319.304	18.500
37.900	21.481	57.710	1.000	37.056	4434.834	100.000	266.161	319.248	18.500
38.000	21.475	57.722	1.000	37.104	4401.540	100.000	266.519	319.198	18.500
38.100	21.473	57.727	1.000	37.111	4424.162	100.000	266.810	319.177	18.500
38.200	21.474	57.728	1.000	37.154	4424.923	100.000	267.148	319.138	18.500
38.300	21.472	57.728	1.000	37.201	4391.959	100.000	265.930	319.167	18.500
38.400	21.472	57.728	1.000	37.251	4413.645	100.000	266.229	319.142	18.500
38.500	21.471	57.728	1.000	37.297	4376.438	100.000	266.146	319.100	18.500
38.600	21.467	57.746	1.000	37.347	4404.424	100.000	266.890	319.065	18.500
38.700	21.453	57.776	1.000	37.357	4367.325	100.000	266.881	319.022	18.500
38.800	21.449	57.791	1.000	37.398	4388.887	100.000	266.480	319.021	18.500
38.900	21.447	57.795	1.000	37.447	4372.241	100.000	265.862	319.017	18.500
39.000	21.446	57.796	1.000	37.500	4361.424	100.000	266.189	318.976	18.500
39.100	21.447	57.796	1.000	37.551	4385.015	100.000	266.600	318.926	18.500
39.200	21.447	57.797	1.000	37.558	4360.110	100.000	266.376	318.916	18.500
39.300	21.447	57.797	1.000	37.601	4404.719	100.000	267.157	318.861	18.500
39.400	21.446	57.802	1.000	37.648	4349.315	100.000	267.190	318.846	18.500
39.500	21.431	57.840	1.000	37.698	4362.652	100.000	266.897	318.827	18.500
39.600	21.424	57.867	1.000	37.703	4335.212	100.000	266.811	318.793	18.500
39.700	21.423	57.875	1.000	37.747	4347.693	100.000	266.603	318.773	18.500
39.800	21.420	57.877	1.000	37.797	4348.727	100.000	267.049	318.716	18.500
39.900	21.420	57.877	1.000	37.801	4330.402	100.000	266.977	318.699	18.500
40.000	21.420	57.879	1.000	37.845	4360.513	100.000	267.376	318.658	18.500
40.100	21.422	57.882	1.000	37.893	4329.702	100.000	267.759	318.615	18.500
40.200	21.418	57.894	1.000	37.897	4347.816	100.000	267.480	318.631	18.500
40.300	21.406	57.938	1.000	37.942	4311.900	100.000	267.070	318.618	18.500
40.400	21.399	57.958	1.000	37.951	4339.700	100.000	266.887	318.602	18.500
40.500	21.398	57.966	1.000	37.992	4314.956	100.000	266.934	318.561	18.500
40.600	21.397	57.968	1.000	38.041	4320.402	100.000	267.464	318.529	18.500
40.700	21.397	57.968	1.000	38.049	4326.569	100.000	267.276	318.494	18.500
40.800	21.397	57.969	1.000	38.087	4318.909	100.000	268.518	318.414	18.500
40.900	21.398	57.968	1.000	38.138	4343.192	100.000	267.723	318.426	18.500
41.000	21.397	57.971	1.000	38.144	4298.270	100.000	267.558	318.393	18.500
41.100	21.386	58.012	1.000	38.185	4316.841	100.000	267.015	318.392	18.500
41.200	21.379	58.051	1.000	38.194	4284.727	100.000	267.101	318.362	18.500
41.300	21.377	58.066	1.000	38.236	4301.223	100.000	266.595	318.364	18.500
41.400	21.376	58.070	1.000	38.240	4276.159	100.000	267.036	318.327	18.500
41.500	21.375	58.071	1.000	38.284	4286.713	100.000	266.830	318.326	18.500
41.600	21.376	58.071	1.000	38.288	4291.766	100.000	267.095	318.278	18.500
41.700	21.377	58.071	1.000	38.333	4273.994	100.000	267.256	318.246	18.500
41.800	21.374	58.081	1.000	38.340	4309.071	100.000	267.689	318.181	18.108
41.900	21.361	58.136	1.000	38.381	4276.961	100.000	267.689	318.167	18.000
42.000	21.355	58.169	1.000	38.386	4293.915	100.000	267.448	318.155	18.000
42.100	21.354	58.180	1.000	38.432	4257.612	100.000	266.736	318.148	18.000
42.200	21.353	58.184	1.000	38.436	4279.808	100.000	267.108	318.121	18.000
42.300	21.353	58.184	1.000	38.477	4259.377	100.000	267.128	318.090	18.000
42.400	21.353	58.184	1.000	38.487	4269.613	100.000	267.088	318.070	18.000
42.500	21.353	58.185	1.000	38.527	4267.488	100.000	267.356	318.025	18.000
42.600	21.352	58.186	1.000	38.534	4256.674	100.000	267.311	318.016	18.000
42.700	21.345	58.219	1.000	38.578	4281.524	100.000	267.442	317.975	18.000
42.800	21.338	58.272	1.000	38.583	4245.965	100.000	267.849	317.928	18.000
42.900	21.335	58.290	1.000	38.624	4282.399	100.000	267.825	317.919	18.000
43.000	21.335	58.296	1.000	38.633	4255.029	100.000	268.053	317.877	18.000
43.100	21.334	58.298	1.000	38.632	4271.996	100.000	267.444	317.876	18.000
43.200	21.335	58.298	1.000	38.672	4239.461	100.000	267.847	317.820	18.000
43.300	21.335	58.301	1.000	38.681	4263.360	100.000	267.651	317.817	18.000
43.400	21.334	58.304	1.000	38.721	4243.401	100.000	267.611	317.795	18.000
43.500	21.326	58.354	1.000	38.727	4240.133	100.000	267.246	317.794	18.000
43.600	21.322	58.395	1.000	38.730	4245.352	100.000	267.142	317.772	18.000
43.700	21.321	58.408	1.000	38.769	4230.544	100.000	267.625	317.719	18.000
43.800	21.319	58.412	1.000	38.774	4260.262	100.000	267.819	317.698	18.000
43.900	21.321	58.415	1.000	38.819	4224.052	100.000	267.602	317.693	18.000
44.000	21.319	58.413	1.000	38.824	4252.490	100.000	268.137	317.619	18.000
44.100	21.320	58.415	1.000	38.826	4231.915	100.000	268.107	317.593	18.000
44.200	21.320	58.414	1.000	38.867	4252.881	100.000	268.437	317.570	18.000
44.300	21.317	58.435	1.000	38.871	4227.479	100.000	268.578	317.539	18.000
44.400	21.310	58.493	1.000	38.873	4243.794	100.000	268.218	317.530	18.000
44.500	21.307	58.516	1.000	38.918	4230.779	100.000	267.788	317.515	18.000
44.600	21.307	58.524	1.000	38.922	4224.918	100.000	268.579	317.474	18.000
44.700	21.305	58.525	1.000	38.926	4240.994	100.000	267.872	317.476	18.000
44.800	21.306	58.525	1.000	38.967	4212.781	100.000	268.233	317.428	18.000
44.900	21.306	58.525	1.000	38.972	4241.721	100.000	267.906	317.411	18.000
45.000	21.305	58.526	1.000	38.974	4209.317	100.000	268.009	317.373	18.000
45.100	21.301	58.566	1.000	39.014	4234.359	100.000	268.311	317.326	18.000
45.200	21.297	58.614	1.000	39.020	4205.620	100.000	268.349	317.306	18.000
45.300	21.295	58.630	1.000	39.024	4228.658	100.000	268.338	317.268	18.000
45.400	21.296	58.637	1.000	39.064	4205.773	100.000	268.773	317.244	18.000
45.500	21.295	58.640	1.000	39.071	4229.094	100.000	268.815	317.224	18.000
45.600	21.294	58.639	1.000	39.072	4220.213	100.000	268.714	317.205	18.000
45.700	21.296	58.638	1.000	39.114	4220.828	100.000	269.031	317.156	18.000
45.800	21.295	58.640	1.000	39.122	4230.900	100.000	269.249	317.124	18.000
45.900	21.292	58.654	1.000	39.123	4209.580	100.000	269.287	317.093	18.000
46.000	21.288	58.703	1.000	39.159	4235.551	100.000	269.539	317.043	18.000
46.100	21.286	58.733	1.000	39.171	4203.229	100.000	268.873	317.052	18.000
46.200	21.286	58.744	1.000	39.170	4230.518	100.000	269.547	317.008	18.000
46.300	21.284	58.743	1.000	39.212	4199.013	100.000	268.827	317.017	18.000
46.400	21.284	58.745	1.000	39.219	4212.104	100.000	268.463	316.984	18.000
46.500	21.286	58.746	1.000	39.218	4183.022	100.000	268.261	317.001	18.000
46.600	21.284	58.747	1.000	39.219	4210.769	100.000	268.497	316.947	18.000
46.700	21.283	58.771	1.000	39.260	4198.739	100.000	268.850	316.915	18.000
46.800	21.282	58.815	1.000	39.265	4203.210	100.000	268.725	316.891	18.000
46.900	21.282	58.833	1.000	39.266	4204.786	100.000	269.019	316.857	18.000
47.000	21.282	58.837	1.000	39.269	4191.591	100.000	269.061	316.821	18.000
47.100	21.283	58.837	1.000	39.311	4214.368	100.000	269.221	316.783	18.000
47.200	21.282	58.839	1.000	39.318	4190.358	100.000	269.479	316.751	18.000
47.300	21.283	58.838	1.000	39.318	4213.007	100.000	269.275	316.724	18.000
47.400	21.283	58.839	1.000	39.358	4188.476	100.000	269.766	316.689	18.000
47.500	21.283	58.847	1.000	39.366	4213.424	100.000	269.305	316.692	18.000
47.600	21.281	58.891	1.000	39.365	4184.470	100.000	269.807	316.643	18.000
47.700	21.277	58.916	1.000	39.363	4213.075	100.000	269.672	316.630	18.000
47.800	21.277	58.926	1.000	39.369	4189.491	100.000	269.926	316.578	17.605
47.900	21.276	58.927	1.000	39.407	4204.428	100.000	269.688	316.575	17.500
48.000	21.278	58.929	1.000	39.414	4193.091	100.000	269.654	316.542	17.500
48.100	21.277	58.931	1.000	39.414	4193.695	100.000	269.913	316.489	17.500
48.200	21.277	58.930	1.000	39.415	4203.584	100.000	269.684	316.501	17.500
48.300	21.277	58.946	1.000	39.456	4175.508	100.000	269.419	316.487	17.500
48.400	21.278	58.986	1.000	39.462	4197.583	100.000	269.316	316.453	17.500
48.500	21.277	59.004	1.000	39.462	4166.857	100.000	268.852	316.455	17.500
48.600	21.277	59.010	1.000	39.463	4188.195	100.000	268.801	316.422	17.500
48.700	21.278	59.011	1.000	39.504	4165.671	100.000	269.070	316.394	17.500
48.800	21.278	59.012	1.000	39.511	4195.590	100.000	269.332	316.359	17.500
48.900	21.278	59.013	1.000	39.512	4161.888	100.000	269.492	316.313	17.500
49.000	21.279	59.013	1.000	39.512	4185.152	100.000	269.223	316.296	17.500
49.100	21.277	59.014	1.000	39.511	4162.989	100.000	269.436	316.281	17.500
49.200	21.279	59.045	1.000	39.515	4180.688	100.000	269.493	316.262	17.500
49.300	21.281	59.072	1.000	39.554	4171.260	100.000	269.554	316.231	17.500
49.400	21.281	59.082	1.000	39.562	4175.508	100.000	269.665	316.204	17.500
49.500	21.281	59.086	1.000	39.561	4187.202	100.000	269.923	316.158	17.500
49.600	21.282	59.086	1.000	39.560	4163.299	100.000	269.632	316.142	17.500
49.700	21.283	59.086	1.000	39.561	4189.426	100.000	269.748	316.137	17.500
49.800	21.283	59.087	1.000	39.603	4164.172	100.000	270.054	316.100	17.500
49.900	21.284	59.093	1.000	39.609	4194.413	100.000	270.120	316.079	17.500
50.000	21.286	59.121	1.000	39.609	4166.984	100.000	270.303	316.034	17.500
50.100	21.288	59.139	1.000	39.608	4189.922	100.000	270.386	316.003	17.500
50.200	21.290	59.143	1.000	39.649	4168.972	100.000	270.700	315.964	17.500
50.300	21.289	59.145	1.000	39.657	4193.766	100.000	270.607	315.929	17.500
50.400	21.287	59.146	1.000	39.656	4168.982	100.000	270.666	315.909	17.500
50.500	21.289	59.145	1.000	39.657	4182.482	100.000	270.783	315.889	17.500
50.600	21.289	59.145	1.000	39.657	4183.893	100.000	271.406	315.826	17.500
50.700	21.289	59.147	1.000	39.656	4180.755	100.000	271.214	315.826	17.500
50.800	21.291	59.161	1.000	39.700	4180.147	100.000	270.642	315.834	17.500
50.900	21.296	59.181	1.000	39.708	4168.869	100.000	271.017	315.775	17.500
51.000	21.296	59.188	1.000	39.706	4194.683	100.000	271.457	315.735	17.500
51.100	21.298	59.191	1.000	39.706	4159.429	100.000	270.415	315.755	17.500
51.200	21.297	59.192	1.000	39.706	4174.405	100.000	270.095	315.738	17.500
51.300	21.298	59.192	1.000	39.748	4147.209	100.000	270.184	315.704	17.500
51.400	21.299	59.192	1.000	39.756	4181.918	100.000	270.688	315.672	17.500
51.500	21.300	59.194	1.000	39.755	4152.785	100.000	270.245	315.660	17.500
51.600	21.306	59.209	1.000	39.755	4174.592	100.000	269.978	315.667	17.500
51.700	21.309	59.219	1.000	39.756	4142.622	100.000	270.353	315.619	17.500
51.800	21.312	59.222	1.000	39.755	4164.071	100.000	270.464	315.598	17.500
51.900	21.312	59.225	1.000	39.756	4150.725	100.000	270.189	315.583	17.500
52.000	21.311	59.224	1.000	39.775	4160.033	100.000	270.488	315.537	17.500
52.100	21.312	59.225	1.000	39.800	4158.991	100.000	270.458	315.498	17.500
52.200	21.312	59.225	1.000	39.805	4156.898	100.000	270.610	315.489	17.500
52.300	21.312	59.224	1.000	39.805	4167.403	100.000	270.456	315.459	17.500
52.400	21.316	59.230	1.000	39.803	4145.631	100.000	270.663	315.424	17.500
52.500	21.323	59.238	1.000	39.805	4177.481	100.000	271.052	315.375	17.500
52.600	21.325	59.245	1.000	39.804	4149.960	100.000	270.996	315.368	17.500
52.700	21.327	59.245	1.000	39.842	4169.486	100.000	271.039	315.327	17.500
52.800	21.325	59.246	1.000	39.851	4148.482	100.000	270.967	315.311	17.500
52.900	21.327	59.245	1.000	39.849	4178.845	100.000	271.357	315.295	17.500
53.000	21.327	59.246	1.000	39.851	4146.871	100.000	271.226	315.261	17.500
53.100	21.328	59.247	1.000	39.851	4170.296	100.000	271.143	315.234	17.500
53.200	21.334	59.253	1.000	39.849	4147.330	100.000	271.505	315.203	17.500
53.300	21.341	59.259	1.000	39.854	4168.009	100.000	271.297	315.187	17.500
53.400	21.344	59.260	1.000	39.866	4156.360	100.000	271.550	315.142	17.500
53.500	21.343	59.263	1.000	39.895	4159.699	100.000	271.583	315.113	17.500
53.600	21.342	59.264	1.000	39.902	4163.760	100.000	271.562	315.105	17.500
53.700	21.343	59.262	1.000	39.902	4153.988	100.000	272.004	315.041	17.500
53.800	21.342	59.263	1.000	39.902	4174.359	100.000	271.721	315.046	17.500
53.900	21.344	59.264	1.000	39.902	4140.367	100.000	271.889	315.024	17.500
54.000	21.347	59.264	1.000	39.901	4172.399	100.000	271.651	315.015	17.500
54.100	21.357	59.268	1.000	39.943	4151.399	100.000	272.007	314.963	17.500
54.200	21.361	59.268	1.000	39.950	4175.313	100.000	272.033	314.928	17.500
54.300	21.362	59.268	1.000	39.949	4145.401	100.000	271.879	314.918	17.500
54.400	21.364	59.269	1.000	39.951	4174.759	100.000	272.346	314.881	17.500
54.500	21.364	59.268	1.000	39.949	4146.603	100.000	271.600	314.883	17.500
54.600	21.362	59.269	1.000	39.949	4168.197	100.000	272.265	314.821	17.500
54.700	21.362	59.269	1.000	39.952	4146.836	100.000	272.064	314.798	17.500
54.800	21.371	59.267	1.000	39.992	4169.812	100.000	272.704	314.749	17.500
54.900	21.379	59.265	1.000	40.000	4165.670	100.000	272.763	314.751	17.500
55.000	21.383	59.264	1.000	40.000	4157.722	100.000	272.139	314.751	17.500
55.100	21.384	59.263	1.000	39.999	4158.488	100.000	271.757	314.740	17.500
55.200	21.385	59.262	1.000	40.001	4142.447	100.000	271.733	314.721	17.500
55.300	21.385	59.264	1.000	39.998	4163.184	100.000	271.879	314.683	17.500
55.400	21.385	59.264	1.000	39.999	4124.997	100.000	271.531	314.670	17.500
55.500	21.384	59.262	1.000	39.999	4155.128	100.000	271.519	314.636	17.500
55.600	21.387	59.261	1.000	39.998	4128.694	100.000	271.479	314.631	17.500
55.700	21.398	59.253	1.000	40.016	4155.048	100.000	271.508	314.601	17.500
55.800	21.406	59.247	1.000	40.019	4124.067	100.000	270.954	314.600	17.500
55.900	21.407	59.246	1.000	40.041	4149.559	100.000	271.539	314.563	17.500
56.000	21.407	59.245	1.000	40.047	4124.227	100.000	271.525	314.546	17.500
56.100	21.408	59.245	1.000	40.048	4144.116	100.000	271.354	314.527	17.500
56.200	21.407	59.246	1.000	40.048	4125.526	100.000	271.302	314.507	17.500
56.300	21.408	59.245	1.000	40.047	4143.367	100.000	271.700	314.466	17.500
56.400	21.414	59.242	1.000	40.045	4134.087	100.000	271.437	314.449	17.500
56.500	21.425	59.233	1.000	40.047	4138.779	100.000	271.533	314.430	17.500
56.600	21.431	59.228	1.000	40.046	4146.271	100.000	271.688	314.377	17.500
56.700	21.432	59.228	1.000	40.047	4132.178	100.000	271.654	314.375	17.500
56.800	21.431	59.227	1.000	40.047	4150.526	100.000	271.870	314.345	17.500
56.900	21.432	59.227	1.000	40.047	4122.406	100.000	271.787	314.299	17.500
57.000	21.432	59.226	1.000	40.047	4148.316	100.000	271.915	314.289	17.500
57.100	21.432	59.227	1.000	40.064	4130.082	100.000	271.889	314.282	17.500
57.200	21.432	59.223	1.000	40.090	4152.462	100.000	271.938	314.259	17.500
57.300	21.444	59.211	1.000	40.097	4133.563	100.000	272.248	314.210	17.500
57.400	21.453	59.201	1.000	40.095	4157.136	100.000	272.347	314.185	17.500
57.500	21.457	59.198	1.000	40.096	4128.062	100.000	272.102	314.173	17.500
57.600	21.458	59.196	1.000	40.097	4152.729	100.000	272.421	314.136	17.500
57.700	21.456	59.197	1.000	40.095	4131.639	100.000	272.289	314.119	17.500
57.800	21.457	59.196	1.000	40.096	4147.241	100.000	272.360	314.092	17.102
57.900	21.457	59.197	1.000	40.095	4138.984	100.000	272.360	314.058	17.000
58.000	21.461	59.191	1.000	40.095	4144.188	100.000	272.575	314.023	17.000
58.100	21.475	59.174	1.000	40.097	4147.782	100.000	272.713	314.003	17.000
58.200	21.482	59.163	1.000	40.112	4136.784	100.000	272.353	313.991	17.000
58.300	21.482	59.161	1.000	40.142	4157.719	100.000	272.888	313.938	17.000
58.400	21.484	59.158	1.000	40.144	4132.218	100.000	272.422	313.943	17.000
58.500	21.484	59.158	1.000	40.143	4160.596	100.000	272.977	313.888	17.000
58.600	21.485	59.160	1.000	40.146	4136.268	100.000	273.031	313.863	17.000
58.700	21.484	59.158	1.000	40.144	4156.778	100.000	272.849	313.855	17.000
58.800	21.485	59.156	1.000	40.144	4125.396	100.000	272.723	313.825	17.000
58.900	21.499	59.137	1.000	40.146	4156.442	100.000	273.023	313.782	17.000
59.000	21.509	59.120	1.000	40.143	4129.649	100.000	273.531	313.744	17.000
59.100	21.513	59.112	1.000	40.145	4158.206	100.000	273.345	313.742	17.000
59.200	21.512	59.111	1.000	40.187	4130.682	100.000	273.159	313.723	17.000
59.300	21.515	59.110	1.000	40.194	4162.040	100.000	273.697	313.663	17.000
59.400	21.514	59.109	1.000	40.195	4139.730	100.000	273.364	313.664	17.000
59.500	21.513	59.109	1.000	40.194	4147.099	100.000	273.359	313.635	17.000
59.600	21.516	59.105	1.000	40.194	4137.817	100.000	273.093	313.622	17.000
59.700	21.531	59.078	1.000	40.195	4142.996	100.000	273.633	313.577	17.000
59.800	21.541	59.063	1.000	40.192	4152.383	100.000	273.568	313.568	17.000
59.900	21.543	59.058	1.000	40.194	4138.203	100.000	273.715	313.523	17.000
60.000	21.542	59.058	1.000	40.193	4165.346	100.000	274.107	313.487	17.000
60.100	21.542	59.057	1.000	40.193	4130.192	100.000	273.609	313.482	17.000
60.200	21.543	59.057	1.000	40.196	4162.189	100.000	273.622	313.460	17.000
60.300	21.543	59.057	1.000	40.238	4128.007	100.000	273.454	313.440	17.000
60.400	21.542	59.056	1.000	40.241	4162.002	100.000	273.851	313.406	17.000
60.500	21.552	59.035	1.000	40.243	4135.301	100.000	273.754	313.393	17.000
60.600	21.566	59.009	1.000	40.240	4156.567	100.000	273.701	313.370	17.000
60.700	21.568	59.002	1.000	40.242	4124.140	100.000	273.575	313.347	17.000
60.800	21.570	58.999	1.000	40.241	4145.052	100.000	272.867	313.350	17.000
60.900	21.572	58.999	1.000	40.241	4117.330	100.000	273.573	313.298	17.000
61.000	21.572	58.998	1.000	40.242	4147.568	100.000	273.251	313.273	17.000
61.100	21.571	58.999	1.000	40.241	4128.309	100.000	273.515	313.254	17.000
61.200	21.573	58.995	1.000	40.242	4142.048	100.000	274.579	313.204	17.000
61.300	21.589	58.962	1.000	40.241	4142.095	100.000	273.901	313.206	17.000
61.400	21.600	58.941	1.000	40.241	4129.950	100.000	273.378	313.199	17.000
61.500	21.604	58.936	1.000	40.244	4136.060	100.000	272.977	313.195	17.000
61.600	21.604	58.933	1.000	40.241	4120.592	100.000	273.279	313.172	17.000
61.700	21.606	58.934	1.000	40.241	4148.762	100.000	273.379	313.127	17.000
61.800	21.605	58.932	1.000	40.286	4118.777	100.000	273.556	313.106	17.000
61.900	21.604	58.932	1.000	40.291	4156.392	100.000	274.030	313.057	17.000
62.000	21.606	58.932	1.000	40.292	4118.407	100.000	273.085	313.062	17.000
62.100	21.610	58.914	1.000	40.290	4135.209	100.000	272.618	313.063	17.000
62.200	21.626	58.880	1.000	40.292	4113.373	100.000	273.588	313.007	17.000
62.300	21.633	58.867	1.000	40.291	4138.696	100.000	273.114	313.008	17.000
62.400	21.636	58.863	1.000	40.291	4102.482	100.000	273.094	312.983	17.000
62.500	21.636	58.862	1.000	40.292	4145.935	100.000	273.755	312.922	17.000
62.600	21.637	58.862	1.000	40.290	4117.750	100.000	273.579	312.908	17.000
62.700	21.637	58.860	1.000	40.289	4132.736	100.000	272.917	312.911	17.000
62.800	21.638	58.861	1.000	40.291	4116.444	100.000	273.340	312.871	17.000
62.900	21.650	58.827	1.000	40.290	4131.398	100.000	273.378	312.828	17.000
63.000	21.662	58.798	1.000	40.292	4126.498	100.000	273.456	312.822	17.000
63.100	21.664	58.787	1.000	40.290	4115.067	100.000	273.342	312.788	17.000
63.200	21.665	58.783	1.000	40.292	4130.723	100.000	273.172	312.783	17.000
63.300	21.668	58.782	1.000	40.293	4102.338	100.000	272.463	312.798	17.000
63.400	21.666	58.783	1.000	40.290	4133.772	100.000	272.739	312.765	17.000
63.500	21.667	58.783	1.000	40.291	4107.018	100.000	273.525	312.700	17.000
63.600	21.666	58.782	1.000	40.291	4148.901	100.000	273.799	312.664	17.000
63.700	21.672	58.767	1.000	40.292	4108.650	100.000	273.013	312.670	17.000
63.800	21.687	58.724	1.000	40.293	4132.019	100.000	273.178	312.645	17.000
63.900	21.694	58.707	1.000	40.290	4105.829	100.000	273.358	312.629	17.000
64.000	21.696	58.701	1.000	40.292	4139.027	100.000	273.545	312.576	17.000
64.100	21.695	58.700	1.000	40.292	4112.344	100.000	273.597	312.574	17.000
64.200	21.695	58.699	1.000	40.290	4132.899	100.000	273.151	312.566	17.000
64.300	21.695	58.700	1.000	40.292	4101.593	100.000	273.186	312.529	17.000
64.400	21.697	58.698	1.000	40.290	4127.408	100.000	273.108	312.512	17.000
64.500	21.707	58.669	1.000	40.289	4111.188	100.000	273.082	312.511	17.000
64.600	21.720	58.629	1.000	40.311	4121.447	100.000	273.448	312.467	17.000
64.700	21.726	58.616	1.000	40.308	4130.524	100.000	273.860	312.405	17.000
64.800	21.727	58.614	1.000	40.311	4118.795	100.000	273.316	312.418	17.000
64.900	21.725	58.612	1.000	40.310	4128.342	100.000	273.558	312.392	17.000
65.000	21.725	58.610	1.000	40.309	4103.104	100.000	273.116	312.387	17.000
65.100	21.727	58.611	1.000	40.339	4134.099	100.000	273.633	312.346	17.000
65.200	21.726	58.611	1.000	40.330	4101.091	100.000	273.519	312.337	17.000
65.300	21.728	58.596	1.000	40.337	4131.742	100.000	273.566	312.293	17.000
65.400	21.747	58.551	1.000	40.331	4100.994	100.000	273.252	312.301	17.000
65.500	21.753	58.532	1.000	40.337	4136.025	100.000	273.611	312.265	17.000
65.600	21.753	58.523	1.000	40.341	4114.328	100.000	273.729	312.230	17.000
65.700	21.755	58.522	1.000	40.339	4141.987	100.000	274.096	312.187	17.000
65.800	21.756	58.521	1.000	40.338	4098.550	100.000	273.397	312.208	17.000
65.900	21.757	58.521	1.000	40.340	4130.033	100.000	273.756	312.157	17.000
66.000	21.757	58.521	1.000	40.338	4106.484	100.000	273.829	312.114	17.000
66.100	21.764	58.496	1.000	40.337	4130.967	100.000	274.099	312.090	17.000
66.200	21.779	58.451	1.000	40.341	4121.688	100.000	274.082	312.055	17.000
66.300	21.787	58.434	1.000	40.341	4128.567	100.000	274.158	312.039	17.000
66.400	21.786	58.428	1.000	40.341	4126.233	100.000	274.213	311.998	17.000
66.500	21.787	58.427	1.000	40.339	4125.254	100.000	274.235	311.992	17.000
66.600	21.788	58.428	1.000	40.340	4136.142	100.000	274.113	311.988	17.000
66.700	21.789	58.428	1.000	40.341	4115.869	100.000	274.517	311.943	17.000
66.800	21.789	58.427	1.000	40.338	4143.069	100.000	274.249	311.922	17.000
66.900	21.791	58.416	1.000	40.339	4110.747	100.000	274.214	311.881	17.000
67.000	21.808	58.366	1.000	40.341	4135.168	100.000	273.934	311.879	17.000
67.100	21.815	58.337	1.000	40.338	4101.233	100.000	274.246	311.846	17.000
67.200	21.817	58.330	1.000	40.339	4141.960	100.000	274.754	311.803	17.000
67.300	21.818	58.327	1.000	40.340	4114.528	100.000	274.243	311.798	17.000
67.400	21.819	58.327	1.000	40.339	4135.618	100.000	274.458	311.772	17.000
67.500	21.818	58.326	1.000	40.342	4111.505	100.000	275.047	311.726	17.000
67.600	21.818	58.327	1.000	40.339	4136.248	100.000	274.430	311.727	17.000
67.700	21.824	58.302	1.000	40.338	4107.626	100.000	274.734	311.687	17.000
67.800	21.839	58.252	1.000	40.339	4127.510	100.000	274.483	311.655	17.000
67.900	21.844	58.232	1.000	40.339	4119.475	100.000	274.713	311.646	17.000
68.000	21.846	58.227	1.000	40.359	4129.413	100.000	274.539	311.624	17.000
68.100	21.847	58.225	1.000	40.359	4116.856	100.000	274.313	311.612	17.000
68.200	21.847	58.225	1.000	40.361	4117.545	100.000	274.654	311.574	17.000
68.300	21.847	58.225	1.000	40.362	4133.418	100.000	274.645	311.546	17.000
68.400	21.847	58.223	1.000	40.384	4108.644	100.000	274.548	311.523	17.000
68.500	21.847	58.218	1.000	40.389	4133.994	100.000	274.641	311.500	17.000
68.600	21.863	58.166	1.000	40.390	4108.493	100.000	274.527	311.491	17.000
68.700	21.872	58.130	1.000	40.390	4146.871	100.000	275.472	311.425	17.000
68.800	21.874	58.119	1.000	40.392	4113.209	100.000	275.352	311.406	17.000
68.900	21.874	58.115	1.000	40.389	4143.730	100.000	275.154	311.391	17.000
69.000	21.875	58.114	1.000	40.389	4115.459	100.000	275.157	311.346	17.000
69.100	21.875	58.113	1.000	40.389	4139.824	100.000	275.351	311.332	17.000
69.200	21.875	58.112	1.000	40.389	4113.206	100.000	275.330	311.317	17.000
69.300	21.879	58.097	1.000	40.390	4134.539	100.000	275.063	311.294	17.000
69.400	21.893	58.034	1.000	40.387	4111.949	100.000	275.443	311.260	17.000
69.500	21.900	58.006	1.000	40.390	4136.478	100.000	275.455	311.228	17.000
69.600	21.903	57.999	1.000	40.389	4112.933	100.000	274.650	311.252	17.000
69.700	21.905	57.997	1.000	40.387	4125.788	100.000	275.247	311.206	17.000
69.800	21.903	57.997	1.000	40.390	4126.143	100.000	275.505	311.155	16.611
69.900	21.904	57.997	1.000	40.389	4126.964	100.000	275.433	311.134	16.500
70.000	21.905	57.995	1.000	40.390	4131.162	100.000	275.540	311.104	16.500
70.100	21.904	57.993	1.000	40.391	4116.497	100.000	275.798	311.077	16.500
70.200	21.916	57.949	1.000	40.389	4143.153	100.000	275.786	311.053	16.500
70.300	21.927	57.909	1.000	40.390	4114.807	100.000	275.454	311.034	16.500
70.400	21.931	57.893	1.000	40.389	4144.293	100.000	275.773	310.985	16.500
70.500	21.931	57.888	1.000	40.387	4113.182	100.000	275.711	310.967	16.500
70.600	21.932	57.886	1.000	40.407	4142.898	100.000	275.744	310.937	16.500
70.700	21.931	57.886	1.000	40.409	4116.767	100.000	275.798	310.928	16.500
70.800	21.931	57.887	1.000	40.433	4147.015	100.000	275.893	310.917	16.500
70.900	21.934	57.880	1.000	40.435	4112.299	100.000	275.654	310.905	16.500
71.000	21.946	57.831	1.000	40.437	4145.905	100.000	276.160	310.853	16.500
71.100	21.953	57.799	1.000	40.439	4122.264	100.000	276.118	310.825	16.500
71.200	21.956	57.788	1.000	40.437	4139.646	100.000	275.959	310.797	16.500
71.300	21.956	57.786	1.000	40.437	4119.652	100.000	276.067	310.777	16.500
71.400	21.956	57.785	1.000	40.436	4138.306	100.000	276.366	310.754	16.500
71.500	21.957	57.784	1.000	40.437	4127.561	100.000	276.367	310.701	16.500
71.600	21.957	57.786	1.000	40.437	4139.824	100.000	276.648	310.677	16.500
71.700	21.957	57.786	1.000	40.437	4147.357	100.000	276.355	310.661	16.500
71.800	21.964	57.755	1.000	40.437	4140.349	100.000	276.656	310.634	16.500
71.900	21.975	57.709	1.000	40.437	4137.067	100.000	276.287	310.637	16.500
72.000	21.978	57.691	1.000	40.435	4120.367	100.000	276.831	310.592	16.500
72.100	21.980	57.684	1.000	40.438	4152.607	100.000	276.421	310.560	16.500
72.200	21.980	57.683	1.000	40.437	4110.998	100.000	276.203	310.559	16.500
72.300	21.982	57.682	1.000	40.437	4146.226	100.000	276.721	310.500	16.500
72.400	21.981	57.682	1.000	40.454	4115.034	100.000	276.487	310.490	16.500
72.500	21.983	57.679	1.000	40.457	4146.388	100.000	276.900	310.463	16.500
72.600	21.992	57.634	1.000	40.456	4121.150	100.000	276.533	310.436	16.500
72.700	22.002	57.598	1.000	40.483	4139.942	100.000	276.687	310.405	16.500
72.800	22.005	57.586	1.000	40.486	4113.663	100.000	276.758	310.385	16.500
72.900	22.006	57.582	1.000	40.488	4142.741	100.000	276.883	310.362	16.500
73.000	22.005	57.581	1.000	40.484	4113.541	100.000	276.768	310.335	16.500
73.100	22.006	57.582	1.000	40.484	4140.539	100.000	276.777	310.297	16.500
73.200	22.006	57.580	1.000	40.487	4123.216	100.000	277.095	310.266	16.500
73.300	22.006	57.582	1.000	40.486	4136.178	100.000	276.976	310.242	16.500
73.400	22.010	57.554	1.000	40.486	4127.204	100.000	276.993	310.208	16.500
73.500	22.021	57.506	1.000	40.486	4128.913	100.000	276.938	310.184	16.500
73.600	22.027	57.488	1.000	40.486	4135.789	100.000	276.558	310.194	16.500
73.700	22.029	57.479	1.000	40.487	4122.163	100.000	277.313	310.134	16.500
73.800	22.029	57.477	1.000	40.486	4150.847	100.000	277.827	310.095	16.500
73.900	22.029	57.477	1.000	40.486	4115.428	100.000	277.388	310.097	16.500
74.000	22.029	57.478	1.000	40.489	4141.806	100.000	276.896	310.075	16.500
74.100	22.030	57.475	1.000	40.486	4116.981	100.000	277.237	310.044	16.500
74.200	22.038	57.431	1.000	40.487	4154.654	100.000	277.703	309.990	16.500
74.300	22.045	57.389	1.000	40.504	4127.582	100.000	277.700	309.955	16.500
74.400	22.049	57.374	1.000	40.488	4147.411	100.000	277.470	309.957	16.500
74.500	22.051	57.370	1.000	40.505	4112.916	100.000	276.882	309.954	16.500
74.600	22.051	57.368	1.000	40.505	4140.222	100.000	277.457	309.891	16.500
74.700	22.050	57.368	1.000	40.530	4119.048	100.000	277.760	309.869	16.500
74.800	22.051	57.365	1.000	40.534	4142.069	100.000	277.129	309.861	16.500
74.900	22.050	57.366	1.000	40.533	4108.861	100.000	277.225	309.849	16.500
75.000	22.054	57.354	1.000	40.535	4138.353	100.000	277.823	309.800	16.500
75.100	22.062	57.302	1.000	40.533	4127.917	100.000	277.988	309.765	16.500
75.200	22.067	57.278	1.000	40.534	4134.049	100.000	277.711	309.749	16.500
75.300	22.069	57.268	1.000	40.535	4136.852	100.000	277.896	309.722	16.500
75.400	22.068	57.267	1.000	40.535	4126.475	100.000	277.401	309.710	16.500
75.500	22.068	57.267	1.000	40.533	4135.025	100.000	277.540	309.664	16.500
75.600	22.069	57.266	1.000	40.534	4118.727	100.000	278.007	309.636	16.500
75.700	22.069	57.264	1.000	40.534	4134.321	100.000	276.952	309.646	16.500
75.800	22.077	57.237	1.000	40.535	4108.316	100.000	277.391	309.602	16.500
75.900	22.085	57.192	1.000	40.534	4138.220	100.000	277.039	309.604	16.500
76.000	22.088	57.172	1.000	40.535	4104.516	100.000	277.224	309.571	16.500
76.100	22.088	57.165	1.000	40.535	4131.923	100.000	276.692	309.569	16.500
76.200	22.088	57.163	1.000	40.534	4115.924	100.000	277.409	309.499	16.500
76.300	22.087	57.163	1.000	40.534	4135.436	100.000	277.493	309.488	16.500
76.400	22.087	57.163	1.000	40.535	4107.431	100.000	276.996	309.495	16.500
76.500	22.089	57.163	1.000	40.535	4135.189	100.000	277.435	309.455	16.500
76.600	22.089	57.156	1.000	40.535	4111.479	100.000	277.540	309.423	16.500
76.700	22.099	57.109	1.000	40.534	4144.448	100.000	278.215	309.370	16.500
76.800	22.103	57.082	1.000	40.534	4109.370	100.000	277.276	309.382	16.500
76.900	22.105	57.074	1.000	40.535	4129.238	100.000	278.231	309.320	16.500
77.000	22.106	57.071	1.000	40.535	4126.828	100.000	278.300	309.310	16.500
77.100	22.107	57.069	1.000	40.534	4123.738	100.000	277.548	309.291	16.500
77.200	22.107	57.067	1.000	40.534	4122.234	100.000	277.474	309.286	16.500
77.300	22.106	57.067	1.000	40.534	4126.770	100.000	277.888	309.223	16.500
77.400	22.107	57.052	1.000	40.535	4131.003	100.000	277.090	309.242	16.500
77.500	22.116	57.013	1.000	40.535	4110.520	100.000	277.883	309.184	16.500
77.600	22.119	56.997	1.000	40.534	4137.984	100.000	277.241	309.185	16.500
77.700	22.120	56.991	1.000	40.553	4104.585	100.000	277.397	309.163	16.500
77.800	22.121	56.989	1.000	40.555	4139.964	100.000	277.716	309.110	16.500
77.900	22.120	56.989	1.000	40.556	4109.145	100.000	277.765	309.082	16.500
78.000	22.120	56.989	1.000	40.554	4136.709	100.000	278.047	309.073	16.500
78.100	22.120	56.989	1.000	40.553	4111.380	100.000	278.027	309.025	16.500
78.200	22.121	56.987	1.000	40.581	4130.949	100.000	277.423	309.030	16.500
78.300	22.127	56.952	1.000	40.582	4106.855	100.000	277.964	308.989	16.500
78.400	22.135	56.924	1.000	40.584	4132.503	100.000	277.547	308.987	16.500
78.500	22.137	56.915	1.000	40.583	4094.538	100.000	277.493	308.972	16.500
78.600	22.138	56.910	1.000	40.583	4132.360	100.000	277.852	308.931	16.500
78.700	22.138	56.910	1.000	40.584	4107.836	100.000	277.693	308.895	16.500
78.800	22.137	56.911	1.000	40.584	4122.883	100.000	277.826	308.861	16.500
78.900	22.139	56.910	1.000	40.585	4111.169	100.000	277.392	308.848	16.500
79.000	22.138	56.903	1.000	40.584	4115.152	100.000	277.366	308.844	16.500
79.100	22.145	56.859	1.000	40.582	4118.457	100.000	277.778	308.807	16.500
79.200	22.148	56.838	1.000	40.585	4114.767	100.000	277.756	308.782	16.500
79.300	22.150	56.830	1.000	40.582	4129.503	100.000	278.250	308.712	16.500
79.400	22.151	56.828	1.000	40.584	4108.583	100.000	278.069	308.726	16.500
79.500	22.151	56.827	1.000	40.585	4133.288	100.000	277.793	308.690	16.500
79.600	22.150	56.827	1.000	40.584	4108.934	100.000	278.192	308.662	16.500
79.700	22.150	56.827	1.000	40.585	4134.153	100.000	277.831	308.657	16.500
79.800	22.150	56.827	1.000	40.582	4106.817	100.000	278.437	308.579	16.107
79.900	22.153	56.798	1.000	40.582	4139.757	100.000	278.207	308.579	16.000
80.000	22.160	56.764	1.000	40.584	4111.478	100.000	278.197	308.565	16.000
80.100	22.164	56.751	1.000	40.583	4132.620	100.000	277.513	308.575	16.000
80.200	22.164	56.749	1.000	40.584	4107.187	100.000	278.125	308.520	16.000
80.300	22.164	56.746	1.000	40.584	4131.364	100.000	278.127	308.499	16.000
80.400	22.164	56.747	1.000	40.583	4110.682	100.000	278.453	308.458	16.000
80.500	22.162	56.746	1.000	40.584	4125.795	100.000	277.844	308.459	16.000
80.600	22.164	56.743	1.000	40.584	4107.206	100.000	278.459	308.415	16.000
80.700	22.170	56.710	1.000	40.584	4128.449	100.000	278.258	308.383	16.000
80.800	22.172	56.684	1.000	40.586	4107.884	100.000	278.033	308.385	16.000
80.900	22.173	56.673	1.000	40.585	4116.181	100.000	278.351	308.327	16.000
81.000	22.173	56.672	1.000	40.585	4125.317	100.000	278.350	308.298	16.000
81.100	22.173	56.671	1.000	40.583	4120.503	100.000	278.952	308.245	16.000
81.200	22.173	56.671	1.000	40.584	4125.304	100.000	278.205	308.260	16.000
81.300	22.174	56.671	1.000	40.584	4102.494	100.000	278.252	308.254	16.000
81.400	22.173	56.671	1.000	40.583	4135.013	100.000	278.348	308.220	16.000
81.500	22.176	56.654	1.000	40.584	4106.103	100.000	278.346	308.193	16.000
81.600	22.179	56.632	1.000	40.584	4133.659	100.000	278.110	308.188	16.000
81.700	22.180	56.624	1.000	40.584	4105.916	100.000	278.460	308.125	16.000
81.800	22.183	56.622	1.000	40.585	4132.555	100.000	278.391	308.107	16.000
81.900	22.183	56.620	1.000	40.584	4116.135	100.000	279.041	308.050	16.000
82.000	22.182	56.620	1.000	40.585	4131.163	100.000	277.743	308.089	16.000
82.100	22.181	56.619	1.000	40.586	4097.440	100.000	278.818	308.020	16.000
82.200	22.182	56.618	1.000	40.583	4133.345	100.000	279.187	307.994	16.000
82.300	22.186	56.602	1.000	40.586	4102.380	100.000	278.401	308.001	16.000
82.400	22.191	56.591	1.000	40.584	4130.395	100.000	278.819	307.945	16.000
82.500	22.191	56.588	1.000	40.583	4117.409	100.000	279.067	307.910	16.000
82.600	22.192	56.587	1.000	40.582	4122.748	100.000	277.984	307.934	16.000
82.700	22.192	56.586	1.000	40.581	4115.937	100.000	279.506	307.832	16.000
82.800	22.192	56.585	1.000	40.583	4128.705	100.000	278.743	307.845	16.000
82.900	22.192	56.586	1.000	40.582	4126.889	100.000	279.114	307.805	16.000
83.000	22.191	56.584	1.000	40.583	4119.787	100.000	278.879	307.766	16.000
83.100	22.193	56.577	1.000	40.584	4124.962	100.000	278.777	307.765	16.000
83.200	22.199	56.560	1.000	40.584	4114.072	100.000	278.862	307.731	16.000
83.300	22.203	56.554	1.000	40.585	4133.896	100.000	278.978	307.722	16.000
83.400	22.203	56.550	1.000	40.584	4103.589	100.000	279.115	307.674	16.000
83.500	22.203	56.548	1.000	40.583	4136.744	100.000	279.091	307.638	16.000
83.600	22.201	56.549	1.000	40.585	4108.830	100.000	279.365	307.600	16.000
83.700	22.201	56.549	1.000	40.583	4131.784	100.000	278.924	307.616	16.000
83.800	22.203	56.548	1.000	40.585	4106.790	100.000	279.082	307.569	16.000
83.900	22.205	56.534	1.000	40.582	4136.605	100.000	279.211	307.540	16.000
84.000	22.210	56.517	1.000	40.601	4107.877	100.000	279.036	307.528	16.000
84.100	22.213	56.510	1.000	40.588	4133.836	100.000	279.307	307.476	16.000
84.200	22.213	56.509	1.000	40.601	4099.987	100.000	279.042	307.455	16.000
84.300	22.211	56.509	1.000	40.587	4132.609	100.000	279.407	307.432	16.000
84.400	22.213	56.509	1.000	40.583	4108.835	100.000	279.407	307.405	16.000
84.500	22.212	56.509	1.000	40.600	4126.726	100.000	279.164	307.389	16.000
84.600	22.211	56.509	1.000	40.604	4112.567	100.000	279.554	307.340	16.000
84.700	22.215	56.506	1.000	40.603	4123.010	100.000	279.160	307.330	16.000
84.800	22.220	56.488	1.000	40.605	4116.231	100.000	279.341	307.297	16.000
84.900	22.222	56.477	1.000	40.602	4114.517	100.000	279.324	307.284	16.000
85.000	22.222	56.473	1.000	40.603	4124.612	100.000	279.461	307.265	16.000
85.100	22.224	56.472	1.000	40.628	4116.646	100.000	279.750	307.204	16.000
85.200	22.224	56.472	1.000	40.631	4136.915	100.000	279.663	307.187	16.000
85.300	22.223	56.472	1.000	40.633	4108.051	100.000	279.934	307.142	16.000
85.400	22.223	56.472	1.000	40.631	4138.430	100.000	279.542	307.151	16.000
85.500	22.226	56.464	1.000	40.633	4107.634	100.000	279.566	307.122	16.000
85.600	22.231	56.447	1.000	40.630	4137.795	100.000	279.955	307.079	16.000
85.700	22.233	56.439	1.000	40.630	4110.171	100.000	280.037	307.052	16.000
85.800	22.233	56.436	1.000	40.632	4131.210	100.000	279.601	307.039	16.000
85.900	22.235	56.436	1.000	40.631	4110.199	100.000	280.134	306.990	16.000
86.000	22.235	56.436	1.000	40.633	4137.718	100.000	280.083	306.959	16.000
86.100	22.234	56.435	1.000	40.632	4107.399	100.000	280.162	306.942	16.000
86.200	22.235	56.436	1.000	40.633	4133.769	100.000	280.307	306.905	16.000
86.300	22.235	56.436	1.000	40.633	4117.974	100.000	280.168	306.881	16.000
86.400	22.241	56.424	1.000	40.631	4131.198	100.000	280.148	306.861	16.000
86.500	22.243	56.413	1.000	40.633	4112.939	100.000	280.089	306.838	16.000
86.600	22.243	56.409	1.000	40.631	4124.158	100.000	280.135	306.815	16.000
86.700	22.243	56.407	1.000	40.630	4121.323	100.000	280.075	306.777	16.000
86.800	22.243	56.408	1.000	40.632	4121.691	100.000	280.314	306.756	16.000
86.900	22.244	56.407	1.000	40.632	4130.103	100.000	280.554	306.726	16.000
87.000	22.243	56.407	1.000	40.633	4116.748	100.000	280.044	306.721	16.000
87.100	22.248	56.404	1.000	40.632	4133.743	100.000	280.553	306.668	16.000
87.200	22.253	56.396	1.000	40.632	4112.346	100.000	280.552	306.640	16.000
87.300	22.255	56.389	1.000	40.633	4142.376	100.000	280.943	306.602	16.000
87.400	22.257	56.386	1.000	40.630	4112.764	100.000	280.151	306.593	16.000
87.500	22.256	56.388	1.000	40.632	4134.591	100.000	280.328	306.578	16.000
87.600	22.256	56.387	1.000	40.631	4110.935	100.000	280.476	306.540	16.000
87.700	22.256	56.387	1.000	40.631	4136.048	100.000	280.425	306.527	16.000
87.800	22.256	56.386	1.000	40.632	4111.505	100.000	280.932	306.482	16.000
87.900	22.256	56.386	1.000	40.631	4140.889	100.000	280.989	306.443	16.000
88.000	22.261	56.379	1.000	40.633	4114.163	100.000	280.801	306.411	16.000
88.100	22.268	56.370	1.000	40.649	4135.054	100.000	280.821	306.392	16.000
88.200	22.269	56.366	1.000	40.677	4109.061	100.000	281.101	306.346	16.000
88.300	22.270	56.365	1.000	40.658	4137.773	100.000	280.993	306.333	16.000
88.400	22.269	56.365	1.000	40.678	4114.496	100.000	281.238	306.288	16.000
88.500	22.270	56.365	1.000	40.684	4132.391	100.000	281.033	306.267	16.000
88.600	22.269	56.366	1.000	40.681	4127.499	100.000	281.354	306.240	16.000
88.700	22.270	56.363	1.000	40.684	4128.928	100.000	281.313	306.217	16.000
88.800	22.277	56.353	1.000	40.683	4131.206	100.000	281.497	306.190	16.000
88.900	22.283	56.348	1.000	40.681	4119.331	100.000	281.187	306.174	16.000
89.000	22.286	56.346	1.000	40.681	4143.779	100.000	281.833	306.114	16.000
89.100	22.285	56.346	1.000	40.682	4120.390	100.000	281.468	306.111	16.000
89.200	22.286	56.346	1.000	40.683	4138.727	100.000	281.200	306.081	16.000
89.300	22.286	56.346	1.000	40.683	4117.754	100.000	281.915	306.035	16.000
89.400	22.285	56.346	1.000	40.682	4148.747	100.000	281.689	305.985	16.000
89.500	22.285	56.345	1.000	40.684	4120.430	100.000	281.714	305.979	16.000
89.600	22.291	56.339	1.000	40.682	4146.650	100.000	281.502	305.979	16.000
89.700	22.297	56.330	1.000	40.682	4122.487	100.000	281.588	305.942	16.000
89.800	22.301	56.326	1.000	40.682	4137.265	100.000	281.660	305.911	15.610
89.900	22.301	56.326	1.000	40.683	4117.686	100.000	282.004	305.868	15.500
90.000	22.301	56.324	1.000	40.684	4143.484	100.000	281.850	305.840	15.500
90.100	22.301	56.323	1.000	40.680	4113.448	100.000	281.402	305.828	15.500
90.200	22.301	56.323	1.000	40.683	4130.869	100.000	281.661	305.798	15.500
90.300	22.303	56.322	1.000	40.683	4120.992	100.000	282.447	305.737	15.500
90.400	22.308	56.309	1.000	40.682	4138.988	100.000	281.968	305.727	15.500
90.500	22.314	56.297	1.000	40.684	4119.324	100.000	282.004	305.705	15.500
90.600	22.316	56.294	1.000	40.698	4131.086	100.000	281.979	305.681	15.500
90.700	22.316	56.292	1.000	40.703	4131.789	100.000	282.221	305.635	15.500
90.800	22.317	56.292	1.000	40.702	4129.974	100.000	282.437	305.608	15.500
90.900	22.319	56.293	1.000	40.726	4135.600	100.000	281.964	305.603	15.500
91.000	22.317	56.293	1.000	40.731	4122.949	100.000	282.286	305.551	15.500
91.100	22.317	56.292	1.000	40.730	4142.059	100.000	282.341	305.515	15.500
91.200	22.319	56.287	1.000	40.732	4118.745	100.000	282.271	305.502	15.500
91.300	22.329	56.273	1.000	40.730	4147.067	100.000	282.822	305.435	15.500
91.400	22.333	56.265	1.000	40.732	4119.273	100.000	282.331	305.443	15.500
91.500	22.333	56.262	1.000	40.730	4148.325	100.000	283.003	305.392	15.500
91.600	22.334	56.262	1.000	40.730	4122.614	100.000	282.644	305.374	15.500
91.700	22.333	56.261	1.000	40.731	4144.926	100.000	282.565	305.366	15.500
91.800	22.335	56.261	1.000	40.730	4117.429	100.000	282.597	305.343	15.500
91.900	22.334	56.260	1.000	40.730	4146.097	100.000	283.124	305.276	15.500
92.000	22.341	56.254	1.000	40.731	4119.858	100.000	282.745	305.273	15.500
92.100	22.347	56.245	1.000	40.730	4144.295	100.000	282.846	305.243	15.500
92.200	22.349	56.241	1.000	40.731	4118.621	100.000	283.100	305.185	15.500
92.300	22.351	56.240	1.000	40.730	4145.275	100.000	283.309	305.157	15.500
92.400	22.351	56.239	1.000	40.731	4125.074	100.000	283.463	305.115	15.500
92.500	22.350	56.239	1.000	40.731	4141.730	100.000	283.096	305.110	15.500
92.600	22.351	56.239	1.000	40.731	4128.929	100.000	283.405	305.061	15.500
92.700	22.350	56.239	1.000	40.749	4135.374	100.000	283.670	305.026	15.500
92.800	22.353	56.237	1.000	40.751	4132.416	100.000	283.128	305.024	15.500
92.900	22.361	56.229	1.000	40.751	4125.141	100.000	282.987	304.991	15.500
93.000	22.367	56.224	1.000	40.777	4142.198	100.000	283.639	304.952	15.500
93.100	22.368	56.223	1.000	40.780	4123.427	100.000	283.195	304.944	15.500
93.200	22.369	56.221	1.000	40.782	4148.234	100.000	283.664	304.887	15.500
93.300	22.368	56.223	1.000	40.780	4122.449	100.000	283.488	304.877	15.500
93.400	22.368	56.221	1.000	40.782	4145.769	100.000	283.509	304.836	15.500
93.500	22.368	56.222	1.000	40.780	4124.122	100.000	283.717	304.790	15.500
93.600	22.372	56.216	1.000	40.780	4154.589	100.000	283.566	304.776	15.500
93.700	22.382	56.208	1.000	40.782	4118.192	100.000	283.654	304.754	15.500
93.800	22.385	56.205	1.000	40.781	4139.523	100.000	283.575	304.741	15.500
93.900	22.385	56.203	1.000	40.782	4121.629	100.000	283.744	304.693	15.500
94.000	22.385	56.203	1.000	40.781	4146.392	100.000	283.899	304.661	15.500
94.100	22.388	56.203	1.000	40.782	4120.113	100.000	283.997	304.622	15.500
94.200	22.387	56.201	1.000	40.782	4145.125	100.000	283.590	304.617	15.500
94.300	22.386	56.201	1.000	40.782	4107.178	100.000	283.056	304.617	15.500
94.400	22.387	56.201	1.000	40.782	4139.537	100.000	284.061	304.539	15.500
94.500	22.397	56.186	1.000	40.782	4129.173	100.000	284.257	304.494	15.500
94.600	22.405	56.175	1.000	40.781	4136.931	100.000	284.276	304.467	15.500
94.700	22.407	56.172	1.000	40.785	4127.939	100.000	283.921	304.462	15.500
94.800	22.411	56.172	1.000	40.798	4133.425	100.000	284.627	304.417	15.500
94.900	22.411	56.171	1.000	40.801	4131.978	100.000	283.895	304.419	15.500
95.000	22.410	56.170	1.000	40.823	4128.649	100.000	284.325	304.360	15.500
95.100	22.409	56.170	1.000	40.827	4140.039	100.000	284.258	304.335	15.500
95.200	22.412	56.164	1.000	40.828	4124.791	100.000	283.961	304.311	15.500
95.300	22.421	56.145	1.000	40.826	4146.228	100.000	284.778	304.243	15.500
95.400	22.425	56.135	1.000	40.830	4121.865	100.000	283.662	304.281	15.500
95.500	22.428	56.132	1.000	40.828	4142.364	100.000	284.123	304.216	15.500
95.600	22.429	56.131	1.000	40.828	4116.022	100.000	284.288	304.187	15.500
95.700	22.427	56.128	1.000	40.829	4145.415	100.000	283.958	304.175	15.500
95.800	22.427	56.131	1.000	40.828	4117.402	100.000	284.008	304.130	15.500
95.900	22.428	56.131	1.000	40.829	4141.119	100.000	284.140	304.128	15.500
96.000	22.429	56.129	1.000	40.827	4112.440	100.000	284.010	304.079	15.500
96.100	22.437	56.111	1.000	40.828	4135.976	100.000	283.697	304.088	15.500
96.200	22.445	56.095	1.000	40.829	4115.694	100.000	284.536	304.033	15.500
96.300	22.446	56.088	1.000	40.828	4139.784	100.000	284.174	303.990	15.500
96.400	22.448	56.087	1.000	40.830	4117.155	100.000	284.615	303.951	15.500
96.500	22.448	56.085	1.000	40.828	4138.849	100.000	284.176	303.938	15.500
96.600	22.449	56.085	1.000	40.828	4109.360	100.000	284.182	303.904	15.500
96.700	22.448	56.086	1.000	40.828	4131.871	100.000	284.278	303.869	15.500
96.800	22.449	56.082	1.000	40.827	4117.573	100.000	284.112	303.849	15.500
96.900	22.460	56.061	1.000	40.829	4122.083	100.000	283.521	303.870	15.500
97.000	22.466	56.049	1.000	40.828	4121.040	100.000	284.289	303.806	15.500
97.100	22.469	56.045	1.000	40.827	4119.065	100.000	283.785	303.802	15.500
97.200	22.469	56.044	1.000	40.827	4130.127	100.000	284.445	303.735	15.500
97.300	22.470	56.044	1.000	40.827	4120.754	100.000	284.425	303.699	15.500
97.400	22.470	56.042	1.000	40.829	4139.132	100.000	284.797	303.656	15.500
97.500	22.469	56.043	1.000	40.828	4119.853	100.000	284.807	303.625	15.500
97.600	22.469	56.042	1.000	40.828	4145.260	100.000	284.010	303.631	15.500
97.700	22.475	56.026	1.000	40.828	4103.572	100.000	284.420	303.582	15.500
97.800	22.484	56.009	1.000	40.827	4139.825	100.000	284.261	303.562	15.500
97.900	22.487	56.003	1.000	40.849	4114.011	100.000	285.306	303.469	15.500
98.000	22.489	55.999	1.000	40.829	4141.967	100.000	284.420	303.498	15.500
98.100	22.488	55.998	1.000	40.846	4100.894	100.000	284.157	303.477	15.500
98.200	22.488	55.998	1.000	40.832	4133.879	100.000	284.294	303.442	15.500
98.300	22.489	55.999	1.000	40.847	4108.346	100.000	284.401	303.411	15.500
98.400	22.489	55.995	1.000	40.831	4137.243	100.000	284.809	303.380	15.500
98.500	22.499	55.974	1.000	40.847	4105.100	100.000	284.436	303.360	15.500
98.600	22.507	55.960	1.000	40.876	4135.907	100.000	284.729	303.326	15.500
98.700	22.508	55.955	1.000	40.879	4106.275	100.000	284.533	303.295	15.500
98.800	22.508	55.953	1.000	40.850	4132.606	100.000	284.599	303.249	15.110
98.900	22.508	55.954	1.000	40.877	4111.621	100.000	284.951	303.217	15.000
99.000	22.510	55.953	1.000	40.879	4129.096	100.000	285.365	303.179	15.000
99.100	22.508	55.952	1.000	40.879	4121.110	100.000	284.709	303.180	15.000
99.200	22.510	55.952	1.000	40.853	4122.932	100.000	285.078	303.143	15.000
99.300	22.512	55.939	1.000	40.876	4110.927	100.000	284.252	303.146	15.000
99.400	22.522	55.920	1.000	40.879	4107.752	100.000	285.003	303.076	15.000
99.500	22.526	55.912	1.000	40.879	4133.298	100.000	284.698	303.076	15.000
99.600	22.528	55.911	1.000	40.879	4102.242	100.000	284.127	303.054	15.000
99.700	22.528	55.909	1.000	40.879	4135.719	100.000	284.709	303.008	15.000
99.800	22.528	55.909	1.000	40.878	4105.305	100.000	284.462	302.984	15.000
99.900	22.528	55.907	1.000	40.879	4140.415	100.000	285.069	302.927	15.000
100.000	22.528	55.906	1.000	40.879	4116.209	100.000	285.225	302.887	15.000
100.100	22.535	55.888	1.000	40.878	4137.228	100.000	285.084	302.874	15.000
100.200	22.543	55.871	1.000	40.880	4104.866	100.000	284.666	302.874	15.000
100.300	22.546	55.867	1.000	40.879	4132.214	100.000	284.959	302.833	15.000
100.400	22.547	55.864	1.000	40.879	4108.101	100.000	284.830	302.791	15.000
100.500	22.547	55.863	1.000	40.880	4130.120	100.000	284.627	302.774	15.000
100.600	22.547	55.863	1.000	40.879	4107.402	100.000	285.536	302.721	15.000
100.700	22.549	55.863	1.000	40.879	4140.543	100.000	285.414	302.674	15.000
100.800	22.547	55.863	1.000	40.879	4116.706	100.000	285.279	302.646	15.000
100.900	22.548	55.857	1.000	40.879	4129.309	100.000	285.186	302.641	15.000
101.000	22.560	55.834	1.000	40.879	4111.368	100.000	285.763	302.555	15.000
101.100	22.564	55.823	1.000	40.879	4133.079	100.000	285.051	302.570	15.000
101.200	22.567	55.821	1.000	40.881	4116.841	100.000	285.072	302.568	15.000
101.300	22.567	55.819	1.000	40.878	4118.612	100.000	284.988	302.534	15.000
101.400	22.566	55.818	1.000	40.879	4125.499	100.000	285.277	302.484	15.000
101.500	22.567	55.820	1.000	40.878	4119.229	100.000	285.209	302.460	15.000
101.600	22.567	55.820	1.000	40.878	4121.042	100.000	284.900	302.448	15.000
101.700	22.572	55.807	1.000	40.879	4108.614	100.000	285.451	302.392	15.000
101.800	22.580	55.787	1.000	40.879	4137.474	100.000	285.311	302.374	15.000
101.900	22.584	55.777	1.000	40.879	4108.753	100.000	285.345	302.314	15.000
102.000	22.584	55.775	1.000	40.880	4135.353	100.000	285.522	302.296	15.000
102.100	22.584	55.773	1.000	40.878	4109.983	100.000	285.407	302.266	15.000
102.200	22.584	55.773	1.000	40.879	4140.349	100.000	285.216	302.261	15.000
102.300	22.584	55.773	1.000	40.877	4109.469	100.000	285.816	302.209	15.000
102.400	22.585	55.775	1.000	40.878	4131.334	100.000	285.342	302.195	15.000
102.500	22.584	55.767	1.000	40.878	4106.920	100.000	285.371	302.165	15.000
102.600	22.593	55.745	1.000	40.877	4138.616	100.000	285.876	302.104	15.000
102.700	22.599	55.733	1.000	40.879	4106.030	100.000	285.472	302.083	15.000
102.800	22.600	55.729	1.000	40.878	4132.603	100.000	285.770	302.049	15.000
102.900	22.600	55.729	1.000	40.879	4109.603	100.000	285.857	302.010	15.000
103.000	22.602	55.728	1.000	40.879	4129.885	100.000	285.265	302.027	15.000
103.100	22.601	55.729	1.000	40.879	4101.819	100.000	285.849	301.961	15.000
103.200	22.599	55.727	1.000	40.880	4132.668	100.000	286.859	301.895	15.000
103.300	22.604	55.716	1.000	40.879	4111.728	100.000	285.773	301.907	15.000
103.400	22.613	55.695	1.000	40.879	4118.963	100.000	285.787	301.863	15.000
103.500	22.618	55.686	1.000	40.879	4123.668	100.000	286.191	301.835	15.000
103.600	22.619	55.683	1.000	40.879	4123.239	100.000	285.856	301.808	15.000
103.700	22.619	55.682	1.000	40.882	4125.867	100.000	285.835	301.762	15.000
103.800	22.619	55.682	1.000	40.878	4114.529	100.000	286.401	301.701	15.000
103.900	22.617	55.683	1.000	40.878	4137.608	100.000	286.107	301.691	15.000
104.000	22.618	55.682	1.000	40.879	4106.497	100.000	286.072	301.672	15.000
104.100	22.619	55.680	1.000	40.876	4138.472	100.000	286.291	301.619	15.000
104.200	22.626	55.658	1.000	40.880	4106.039	100.000	286.409	301.587	15.000
104.300	22.632	55.644	1.000	40.878	4136.663	100.000	286.330	301.574	15.000
104.400	22.633	55.641	1.000	40.878	4111.436	100.000	286.541	301.533	15.000
104.500	22.632	55.638	1.000	40.879	4138.949	100.000	286.608	301.483	15.000
104.600	22.632	55.638	1.000	40.879	4112.464	100.000	286.471	301.473	15.000
104.700	22.635	55.637	1.000	40.879	4132.882	100.000	286.343	301.454	15.000
104.800	22.633	55.637	1.000	40.895	4111.191	100.000	286.667	301.409	15.000
104.900	22.637	55.630	1.000	40.881	4134.100	100.000	286.645	301.362	15.000
105.000	22.644	55.607	1.000	40.897	4113.312	100.000	286.821	301.330	15.000
105.100	22.650	55.596	1.000	40.924	4133.468	100.000	286.849	301.311	15.000
105.200	22.650	55.593	1.000	40.929	4105.027	100.000	286.969	301.265	15.000
105.300	22.652	55.591	1.000	40.926	4135.642	100.000	286.708	301.241	15.000
105.400	22.651	55.590	1.000	40.927	4112.350	100.000	286.964	301.221	15.000
105.500	22.651	55.592	1.000	40.926	4128.931	100.000	286.658	301.195	15.000
105.600	22.651	55.592	1.000	40.925	4121.486	100.000	286.943	301.141	15.000
105.700	22.652	55.588	1.000	40.928	4126.727	100.000	286.848	301.117	15.000
105.800	22.658	55.569	1.000	40.927	4121.186	100.000	286.685	301.108	15.000
105.900	22.663	55.552	1.000	40.927	4118.840	100.000	287.007	301.060	15.000
106.000	22.667	55.545	1.000	40.926	4128.382	100.000	286.975	301.020	15.000
106.100	22.665	55.543	1.000	40.925	4111.025	100.000	286.708	300.989	15.000
106.200	22.665	55.543	1.000	40.926	4136.230	100.000	287.214	300.935	15.000
106.300	22.665	55.544	1.000	40.925	4109.175	100.000	286.665	300.926	15.000
106.400	22.666	55.543	1.000	40.926	4131.910	100.000	286.731	300.926	15.000
106.500	22.668	55.538	1.000	40.926	4106.605	100.000	287.620	300.858	15.000
106.600	22.676	55.515	1.000	40.925	4140.830	100.000	287.475	300.822	15.000
106.700	22.680	55.503	1.000	40.929	4097.124	100.000	286.979	300.817	15.000
106.800	22.681	55.498	1.000	40.926	4132.372	100.000	287.380	300.750	14.606
106.900	22.680	55.499	1.000	40.929	4109.357	100.000	287.335	300.740	14.500
107.000	22.680	55.498	1.000	40.926	4133.384	100.000	287.711	300.676	14.500
107.100	22.680	55.498	1.000	40.926	4106.475	100.000	287.500	300.662	14.500
107.200	22.680	55.498	1.000	40.928	4132.134	100.000	287.671	300.613	14.500
107.300	22.681	55.498	1.000	40.927	4108.510	100.000	287.523	300.596	14.500
107.400	22.686	55.481	1.000	40.928	4131.410	100.000	288.166	300.532	14.500
107.500	22.691	55.461	1.000	40.927	4107.078	100.000	287.841	300.522	14.500
107.600	22.694	55.454	1.000	40.925	4131.348	100.000	287.867	300.492	14.500
107.700	22.696	55.451	1.000	40.928	4112.014	100.000	288.100	300.443	14.500
107.800	22.696	55.449	1.000	40.925	4129.487	100.000	287.929	300.422	14.500
107.900	22.696	55.449	1.000	40.928	4112.157	100.000	287.648	300.395	14.500
108.000	22.696	55.449	1.000	40.925	4121.852	100.000	288.073	300.338	14.500
108.100	22.695	55.446	1.000	40.926	4121.136	100.000	287.793	300.332	14.500
108.200	22.702	55.422	1.000	40.928	4108.304	100.000	287.831	300.276	14.500
108.300	22.709	55.407	1.000	40.925	4122.424	100.000	287.889	300.255	14.500
108.400	22.710	55.401	1.000	40.928	4111.324	100.000	288.682	300.199	14.500
108.500	22.710	55.399	1.000	40.926	4136.857	100.000	288.431	300.174	14.500
108.600	22.709	55.400	1.000	40.925	4099.220	100.000	287.939	300.158	14.500
108.700	22.711	55.399	1.000	40.928	4130.695	100.000	287.810	300.150	14.500
108.800	22.710	55.397	1.000	40.926	4101.015	100.000	287.947	300.090	14.500
108.900	22.710	55.398	1.000	40.928	4133.980	100.000	288.391	300.043	14.500
109.000	22.712	55.386	1.000	40.926	4104.670	100.000	288.102	300.022	14.500
109.100	22.721	55.360	1.000	40.926	4130.739	100.000	287.966	299.995	14.500
109.200	22.723	55.351	1.000	40.926	4103.030	100.000	288.186	299.946	14.500
109.300	22.723	55.349	1.000	40.926	4132.616	100.000	288.343	299.892	14.500
109.400	22.725	55.348	1.000	40.928	4103.786	100.000	288.739	299.841	14.500
109.500	22.725	55.349	1.000	40.927	4135.408	100.000	288.702	299.835	14.500
109.600	22.725	55.348	1.000	40.926	4100.928	100.000	288.648	299.809	14.500
109.700	22.724	55.345	1.000	40.925	4124.226	100.000	288.286	299.797	14.500
109.800	22.731	55.324	1.000	40.925	4107.210	100.000	288.714	299.729	14.500
109.900	22.735	55.303	1.000	40.928	4127.291	100.000	288.471	299.704	14.500
110.000	22.738	55.294	1.000	40.926	4107.216	100.000	288.585	299.684	14.500
110.100	22.738	55.291	1.000	40.928	4119.338	100.000	288.749	299.643	14.500
110.200	22.738	55.293	1.000	40.926	4118.660	100.000	288.901	299.589	14.500
110.300	22.738	55.291	1.000	40.927	4119.028	100.000	288.854	299.546	14.500
110.400	22.738	55.290	1.000	40.927	4128.191	100.000	289.200	299.503	14.500
110.500	22.736	55.290	1.000	40.925	4117.903	100.000	288.879	299.475	14.500
110.600	22.742	55.281	1.000	40.928	4124.989	100.000	288.981	299.463	14.500
110.700	22.748	55.254	1.000	40.926	4110.729	100.000	288.899	299.425	14.500
110.800	22.752	55.242	1.000	40.925	4133.675	100.000	289.115	299.368	14.102
110.900	22.753	55.238	1.000	40.925	4109.227	100.000	289.192	299.350	14.000
111.000	22.755	55.238	1.000	40.925	4141.204	100.000	289.396	299.288	14.000
111.100	22.754	55.237	1.000	40.929	4111.445	100.000	289.256	299.287	14.000
111.200	22.752	55.237	1.000	40.925	4134.191	100.000	289.262	299.251	14.000
111.300	22.754	55.236	1.000	40.928	4106.958	100.000	289.651	299.182	14.000
111.400	22.755	55.217	1.000	40.926	4138.556	100.000	289.580	299.153	14.000
111.500	22.761	55.191	1.000	40.926	4105.474	100.000	289.440	299.111	14.000
111.600	22.762	55.183	1.000	40.929	4136.672	100.000	289.471	299.091	14.000
111.700	22.764	55.180	1.000	40.925	4104.815	100.000	289.123	299.093	14.000
111.800	22.763	55.180	1.000	40.925	4137.178	100.000	289.486	299.038	14.000
111.900	22.765	55.178	1.000	40.927	4108.077	100.000	289.551	298.995	14.000
112.000	22.765	55.179	1.000	40.927	4132.868	100.000	289.909	298.941	14.000
112.100	22.763	55.180	1.000	40.926	4112.353	100.000	289.640	298.920	14.000
112.200	22.765	55.173	1.000	40.926	4125.335	100.000	289.607	298.890	14.000
112.300	22.773	55.142	1.000	40.926	4116.555	100.000	289.621	298.858	14.000
112.400	22.774	55.126	1.000	40.926	4122.072	100.000	289.637	298.801	14.000
112.500	22.775	55.122	1.000	40.925	4116.740	100.000	289.779	298.762	14.000
112.600	22.774	55.122	1.000	40.926	4120.621	100.000	289.672	298.741	14.000
112.700	22.774	55.121	1.000	40.926	4121.145	100.000	289.397	298.729	14.000
112.800	22.774	55.119	1.000	40.928	4113.065	100.000	289.936	298.670	14.000
112.900	22.775	55.120	1.000	40.926	4132.492	100.000	290.195	298.630	14.000
113.000	22.778	55.104	1.000	40.926	4108.586	100.000	289.611	298.632	14.000
113.100	22.783	55.073	1.000	40.925	4138.109	100.000	290.057	298.584	14.000
113.200	22.785	55.062	1.000	40.926	4112.706	100.000	290.096	298.507	14.000
113.300	22.786	55.059	1.000	40.928	4136.143	100.000	289.818	298.504	14.000
113.400	22.787	55.057	1.000	40.926	4106.285	100.000	290.132	298.455	14.000
113.500	22.787	55.057	1.000	40.926	4137.114	100.000	290.102	298.427	14.000
113.600	22.787	55.055	1.000	40.944	4107.817	100.000	290.079	298.378	14.000
113.700	22.784	55.057	1.000	40.927	4135.210	100.000	290.456	298.346	14.000
113.800	22.787	55.051	1.000	40.944	4105.590	100.000	290.258	298.311	13.612
113.900	22.793	55.018	1.000	40.928	4130.132	100.000	290.150	298.302	13.500
114.000	22.796	55.000	1.000	40.944	4103.998	100.000	290.375	298.235	13.500
114.100	22.799	54.997	1.000	40.948	4137.080	100.000	290.843	298.191	13.500
114.200	22.799	54.996	1.000	40.972	4101.858	100.000	290.304	298.174	13.500
114.300	22.799	54.995	1.000	40.978	4135.344	100.000	290.945	298.111	13.500
114.400	22.800	54.995	1.000	40.976	4118.142	100.000	290.925	298.086	13.500
114.500	22.800	54.993	1.000	40.950	4125.752	100.000	290.510	298.051	13.500
114.600	22.800	54.981	1.000	40.972	4116.262	100.000	290.687	298.027	13.500
114.700	22.804	54.954	1.000	40.974	4126.253	100.000	291.280	297.952	13.500
114.800	22.806	54.941	1.000	40.977	4131.102	100.000	290.921	297.945	13.500
114.900	22.807	54.940	1.000	40.976	4123.079	100.000	290.638	297.941	13.500
115.000	22.807	54.938	1.000	40.976	4133.258	100.000	291.350	297.848	13.500
115.100	22.808	54.938	1.000	40.976	4120.459	100.000	291.120	297.836	13.500
115.200	22.808	54.938	1.000	40.975	4129.854	100.000	291.016	297.810	13.500
115.300	22.807	54.937	1.000	40.979	4112.438	100.000	291.373	297.745	13.500
115.400	22.809	54.934	1.000	40.976	4136.302	100.000	291.023	297.732	13.500
115.500	22.814	54.909	1.000	40.975	4107.774	100.000	291.147	297.698	13.500
115.600	22.818	54.886	1.000	40.978	4143.526	100.000	291.384	297.637	13.500
115.700	22.817	54.880	1.000	40.976	4114.245	100.000	291.180	297.601	13.500
115.800	22.817	54.879	1.000	40.977	4134.466	100.000	290.813	297.596	13.500
115.900	22.820	54.878	1.000	40.976	4110.775	100.000	291.274	297.554	13.500
116.000	22.818	54.876	1.000	40.976	4133.769	100.000	291.691	297.493	13.500
116.100	22.817	54.877	1.000	40.977	4107.396	100.000	291.251	297.461	13.500
116.200	22.820	54.870	1.000	40.975	4136.546	100.000	291.670	297.415	13.500
116.300	22.825	54.844	1.000	40.977	4119.703	100.000	291.728	297.376	13.500
116.400	22.827	54.831	1.000	40.975	4137.814	100.000	291.517	297.356	13.500
116.500	22.828	54.826	1.000	40.977	4113.826	100.000	291.792	297.297	13.500
116.600	22.827	54.825	1.000	40.978	4135.585	100.000	291.851	297.263	13.500
116.700	22.827	54.824	1.000	40.976	4113.218	100.000	291.531	297.254	13.500
116.800	22.828	54.824	1.000	40.977	4125.863	100.000	291.857	297.191	13.109
116.900	22.827	54.824	1.000	40.976	4116.798	100.000	292.008	297.166	13.000
117.000	22.827	54.824	1.000	40.976	4128.632	100.000	291.643	297.146	13.000
117.100	22.832	54.807	1.000	40.976	4134.090	100.000	292.278	297.078	13.000
117.200	22.837	54.788	1.000	40.975	4129.222	100.000	292.426	297.020	13.000
117.300	22.838	54.781	1.000	40.976	4131.048	100.000	291.901	297.013	13.000
117.400	22.839	54.777	1.000	40.975	4121.008	100.000	292.231	296.950	13.000
117.500	22.837	54.778	1.000	40.976	4137.617	100.000	292.522	296.892	13.000
117.600	22.839	54.778	1.000	40.976	4117.740	100.000	292.341	296.882	13.000
117.700	22.839	54.778	1.000	40.975	4138.647	100.000	292.685	296.822	13.000
117.800	22.839	54.773	1.000	40.977	4115.050	100.000	292.685	296.775	13.000
117.900	22.845	54.749	1.000	40.974	4139.531	100.000	291.969	296.784	13.000
118.000	22.847	54.736	1.000	40.975	4113.959	100.000	292.656	296.740	13.000
118.100	22.849	54.731	1.000	40.977	4146.913	100.000	292.910	296.693	13.000
118.200	22.849	54.729	1.000	40.994	4112.769	100.000	292.563	296.647	13.000
118.300	22.850	54.729	1.000	40.998	4145.661	100.000	292.997	296.582	13.000
118.400	22.849	54.729	1.000	40.995	4123.389	100.000	293.406	296.541	13.000
118.500	22.849	54.729	1.000	41.019	4140.424	100.000	293.138	296.521	13.000
118.600	22.849	54.728	1.000	41.024	4115.027	100.000	293.142	296.461	13.000
118.700	22.852	54.714	1.000	41.022	4147.290	100.000	293.211	296.425	13.000
118.800	22.858	54.691	1.000	41.022	4119.344	100.000	293.496	296.386	12.620
118.900	22.858	54.682	1.000	41.023	4136.013	100.000	293.491	296.341	12.500
119.000	22.858	54.678	1.000	41.024	4117.615	100.000	293.742	296.308	12.500
119.100	22.859	54.679	1.000	41.024	4137.841	100.000	293.031	296.299	12.500
119.200	22.858	54.678	1.000	41.023	4113.651	100.000	293.158	296.258	12.500
119.300	22.860	54.680	1.000	41.025	4137.793	100.000	293.728	296.205	12.500
119.400	22.859	54.678	1.000	41.023	4127.661	100.000	293.517	296.169	12.500
119.500	22.864	54.655	1.000	41.023	4124.195	100.000	293.168	296.138	12.500
119.600	22.869	54.634	1.000	41.023	4130.644	100.000	293.542	296.084	12.500
119.700	22.870	54.627	1.000	41.022	4125.790	100.000	293.573	296.045	12.500
119.800	22.871	54.625	1.000	41.022	4135.502	100.000	293.607	296.017	12.500
119.900	22.871	54.625	1.000	41.023	4118.900	100.000	293.959	295.957	12.500
120.000	22.871	54.628	1.000	41.022	4146.972	100.000	294.428	295.902	12.500
120.100	22.870	54.624	1.000	41.025	4115.593	100.000	293.838	295.899	12.500
120.200	22.871	54.626	1.000	41.024	4143.143	100.000	293.984	295.841	12.500
120.300	22.874	54.617	1.000	41.025	4119.252	100.000	294.015	295.811	12.500
120.400	22.877	54.592	1.000	41.024	4140.119	100.000	293.847	295.773	12.500
120.500	22.878	54.584	1.000	41.024	4114.985	100.000	294.011	295.708	12.500
120.600	22.878	54.581	1.000	41.023	4146.916	100.000	294.566	295.657	12.500
120.700	22.878	54.580	1.000	41.022	4124.780	100.000	294.201	295.636	12.500
120.800	22.878	54.578	1.000	41.024	4139.577	100.000	294.468	295.602	12.500
120.900	22.878	54.578	1.000	41.041	4120.508	100.000	294.343	295.548	12.500
121.000	22.880	54.578	1.000	41.025	4145.975	100.000	294.551	295.502	12.500
121.100	22.883	54.564	1.000	41.066	4122.006	100.000	294.949	295.478	12.500
121.200	22.889	54.544	1.000	41.074	4152.053	100.000	294.949	295.421	12.500
121.300	22.888	54.539	1.000	41.074	4120.445	100.000	294.756	295.385	12.500
121.400	22.889	54.537	1.000	41.073	4141.812	100.000	295.198	295.325	12.500
121.500	22.889	54.536	1.000	41.073	4128.611	100.000	295.121	295.291	12.500
121.600	22.890	54.536	1.000	41.074	4139.734	100.000	295.020	295.245	12.500
121.700	22.889	54.536	1.000	41.074	4127.845	100.000	294.841	295.225	12.500
121.800	22.889	54.535	1.000	41.074	4127.295	100.000	294.915	295.146	12.106
121.900	22.891	54.527	1.000	41.074	4125.983	100.000	294.866	295.113	12.000
122.000	22.899	54.507	1.000	41.074	4125.197	100.000	294.977	295.093	12.000
122.100	22.900	54.499	1.000	41.074	4140.107	100.000	295.011	295.073	12.000
122.200	22.902	54.494	1.000	41.072	4126.873	100.000	295.398	295.006	12.000
122.300	22.901	54.493	1.000	41.073	4147.326	100.000	295.153	294.977	12.000
122.400	22.901	54.493	1.000	41.074	4116.638	100.000	295.077	294.935	12.000
122.500	22.903	54.493	1.000	41.074	4142.526	100.000	295.514	294.882	12.000
122.600	22.902	54.493	1.000	41.074	4117.684	100.000	294.861	294.853	12.000
122.700	22.906	54.479	1.000	41.074	4146.551	100.000	295.384	294.803	12.000
122.800	22.912	54.461	1.000	41.074	4118.651	100.000	295.164	294.782	12.000
122.900	22.913	54.453	1.000	41.074	4140.695	100.000	295.304	294.725	12.000
123.000	22.914	54.453	1.000	41.074	4119.489	100.000	295.567	294.675	12.000
123.100	22.915	54.451	1.000	41.074	4150.604	100.000	295.809	294.609	12.000
123.200	22.915	54.451	1.000	41.074	4122.145	100.000	295.873	294.588	12.000
123.300	22.915	54.451	1.000	41.074	4142.501	100.000	295.959	294.532	12.000
123.400	22.916	54.451	1.000	41.074	4115.902	100.000	295.497	294.507	12.000
123.500	22.917	54.442	1.000	41.074	4137.176	100.000	295.456	294.484	12.000
123.600	22.923	54.421	1.000	41.092	4117.092	100.000	295.695	294.446	12.000
123.700	22.928	54.410	1.000	41.117	4146.925	100.000	295.800	294.399	12.000
123.800	22.929	54.404	1.000	41.122	4120.346	100.000	295.743	294.349	11.609
123.900	22.927	54.404	1.000	41.123	4137.110	100.000	295.805	294.328	11.500
124.000	22.927	54.403	1.000	41.121	4122.967	100.000	296.296	294.231	11.500
124.100	22.928	54.403	1.000	41.122	4138.428	100.000	296.347	294.197	11.500
124.200	22.928	54.402	1.000	41.122	4127.645	100.000	295.407	294.206	11.500
124.300	22.931	54.391	1.000	41.121	4128.982	100.000	296.237	294.143	11.500
124.400	22.938	54.371	1.000	41.123	4131.696	100.000	295.943	294.089	11.500
124.500	22.941	54.363	1.000	41.123	4130.610	100.000	296.789	294.020	11.500
124.600	22.940	54.360	1.000	41.123	4140.488	100.000	296.441	293.995	11.500
124.700	22.939	54.359	1.000	41.122	4128.343	100.000	296.918	293.923	11.500
124.800	22.940	54.358	1.000	41.122	4135.486	100.000	295.476	293.946	11.500
124.900	22.940	54.357	1.000	41.125	4109.538	100.000	295.972	293.884	11.500
125.000	22.941	54.359	1.000	41.123	4146.609	100.000	296.168	293.827	11.500
125.100	22.940	54.355	1.000	41.122	4119.750	100.000	296.149	293.779	11.500
125.200	22.947	54.337	1.000	41.125	4143.973	100.000	296.667	293.732	11.500
125.300	22.951	54.324	1.000	41.120	4114.124	100.000	296.385	293.711	11.500
125.400	22.952	54.321	1.000	41.122	4139.831	100.000	296.112	293.669	11.500
125.500	22.953	54.320	1.000	41.123	4115.338	100.000	296.287	293.627	11.500
125.600	22.952	54.318	1.000	41.120	4150.168	100.000	296.704	293.543	11.500
125.700	22.952	54.318	1.000	41.124	4132.275	100.000	296.480	293.521	11.500
125.800	22.954	54.319	1.000	41.121	4130.688	100.000	296.006	293.509	11.105
125.900	22.955	54.312	1.000	41.122	4111.617	100.000	296.469	293.448	11.000
126.000	22.962	54.295	1.000	41.123	4143.929	100.000	296.401	293.395	11.000
126.100	22.965	54.291	1.000	41.122	4114.873	100.000	296.428	293.358	11.000
126.200	22.965	54.286	1.000	41.125	4133.351	100.000	296.231	293.335	11.000
126.300	22.965	54.287	1.000	41.123	4116.270	100.000	297.996	293.219	11.000
126.400	22.966	54.286	1.000	41.121	4133.475	100.000	296.565	293.250	11.000
126.500	22.967	54.286	1.000	41.123	4114.120	100.000	296.518	293.185	11.000
126.600	22.967	54.286	1.000	41.122	4132.282	100.000	296.964	293.127	11.000
126.700	22.968	54.284	1.000	41.123	4127.743	100.000	296.451	293.117	11.000
126.800	22.972	54.267	1.000	41.140	4129.883	100.000	296.432	293.068	11.000
126.900	22.979	54.255	1.000	41.141	4140.854	100.000	297.053	292.973	11.000
127.000	22.981	54.249	1.000	41.143	4132.081	100.000	296.619	292.976	11.000
127.100	22.980	54.247	1.000	41.167	4127.145	100.000	296.754	292.925	11.000
127.200	22.980	54.247	1.000	41.172	4114.336	100.000	296.796	292.874	11.000
127.300	22.981	54.247	1.000	41.170	4136.210	100.000	297.341	292.820	11.000
127.400	22.980	54.247	1.000	41.170	4114.359	100.000	296.936	292.814	11.000
127.500	22.981	54.242	1.000	41.171	4135.672	100.000	297.124	292.758	11.000
127.600	22.989	54.220	1.000	41.171	4113.218	100.000	297.277	292.719	11.000
127.700	22.994	54.206	1.000	41.171	4141.594	100.000	297.181	292.650	11.000
127.800	22.995	54.202	1.000	41.171	4110.479	100.000	297.341	292.584	11.000
127.900	22.996	54.201	1.000	41.171	4133.898	100.000	297.192	292.573	11.000
128.000	22.996	54.201	1.000	41.173	4110.550	100.000	297.167	292.521	11.000
128.100	22.995	54.199	1.000	41.171	4130.866	100.000	297.209	292.470	11.000
128.200	22.994	54.201	1.000	41.171	4108.435	100.000	297.583	292.387	11.000
128.300	22.995	54.198	1.000	41.171	4132.525	100.000	297.113	292.379	11.000
128.400	23.002	54.181	1.000	41.171	4108.812	100.000	297.076	292.342	11.000
128.500	23.007	54.162	1.000	41.173	4134.192	100.000	297.592	292.300	11.000
128.600	23.009	54.157	1.000	41.170	4116.749	100.000	297.597	292.242	11.000
128.700	23.009	54.154	1.000	41.171	4132.639	100.000	297.502	292.213	11.000
128.800	23.011	54.153	1.000	41.172	4104.945	100.000	297.545	292.171	10.603
128.900	23.010	54.154	1.000	41.171	4137.649	100.000	298.101	292.077	10.500
129.000	23.008	54.153	1.000	41.173	4114.791	100.000	297.591	292.068	10.500
129.100	23.009	54.149	1.000	41.171	4124.567	100.000	297.401	292.013	10.500
129.200	23.017	54.128	1.000	41.171	4117.069	100.000	297.837	291.970	10.500
129.300	23.024	54.111	1.000	41.171	4126.475	100.000	298.005	291.912	10.500
129.400	23.025	54.107	1.000	41.170	4126.547	100.000	298.105	291.854	10.500
129.500	23.026	54.104	1.000	41.172	4124.606	100.000	298.290	291.811	10.500
129.600	23.025	54.104	1.000	41.171	4125.904	100.000	298.169	291.775	10.500
129.700	23.025	54.104	1.000	41.171	4115.278	100.000	298.159	291.740	10.500
129.800	23.025	54.104	1.000	41.172	4126.776	100.000	298.252	291.679	10.500
129.900	23.025	54.104	1.000	41.171	4107.686	100.000	297.822	291.654	10.500
130.000	23.029	54.089	1.000	41.173	4131.601	100.000	298.376	291.568	10.500
130.100	23.037	54.064	1.000	41.171	4108.706	100.000	298.185	291.549	10.500
130.200	23.040	54.055	1.000	41.172	4134.056	100.000	298.677	291.457	10.500
130.300	23.040	54.052	1.000	41.171	4109.282	100.000	298.244	291.440	10.500
130.400	23.041	54.052	1.000	41.170	4137.064	100.000	298.391	291.395	10.500
130.500	23.041	54.052	1.000	41.171	4116.680	100.000	299.241	291.323	10.500
130.600	23.041	54.052	1.000	41.171	4142.400	100.000	298.754	291.283	10.500
130.700	23.041	54.050	1.000	41.170	4108.122	100.000	298.572	291.269	10.500
130.800	23.046	54.029	1.000	41.172	4134.513	100.000	298.950	291.202	10.107
130.900	23.054	54.013	1.000	41.171	4109.028	100.000	298.752	291.173	10.000
131.000	23.053	54.007	1.000	41.171	4129.374	100.000	298.645	291.116	10.000
131.100	23.055	54.004	1.000	41.170	4109.433	100.000	298.895	291.051	10.000
131.200	23.055	54.005	1.000	41.171	4133.674	100.000	299.330	290.977	10.000
131.300	23.054	54.005	1.000	41.171	4110.330	100.000	298.942	290.952	10.000
131.400	23.056	54.005	1.000	41.171	4133.879	100.000	299.517	290.877	10.000
131.500	23.056	54.003	1.000	41.172	4114.564	100.000	299.571	290.825	10.000
131.600	23.059	53.996	1.000	41.171	4130.721	100.000	299.697	290.800	10.000
131.700	23.066	53.974	1.000	41.171	4114.186	100.000	298.859	290.784	10.000
131.800	23.070	53.963	1.000	41.172	4127.507	100.000	299.643	290.699	10.000
131.900	23.072	53.958	1.000	41.171	4122.011	100.000	299.577	290.642	10.000
132.000	23.069	53.956	1.000	41.174	4125.174	100.000	299.336	290.614	10.000
132.100	23.072	53.957	1.000	41.171	4126.059	100.000	299.571	290.558	10.000
132.200	23.071	53.957	1.000	41.172	4124.458	100.000	300.083	290.488	10.000
132.300	23.072	53.957	1.000	41.171	4125.946	100.000	299.267	290.481	10.000
132.400	23.076	53.944	1.000	41.170	4110.612	100.000	299.820	290.395	10.000
132.500	23.082	53.925	1.000	41.172	4134.966	100.000	299.792	290.348	10.000
132.600	23.083	53.917	1.000	41.170	4113.148	100.000	299.758	290.301	10.000
132.700	23.084	53.913	1.000	41.172	4130.254	100.000	299.880	290.269	10.000
132.800	23.085	53.912	1.000	41.172	4108.257	100.000	300.001	290.216	9.612
132.900	23.084	53.911	1.000	41.171	4141.344	100.000	300.543	290.133	9.500
133.000	23.083	53.912	1.000	41.172	4107.170	100.000	299.701	290.139	9.500
133.100	23.085	53.913	1.000	41.171	4126.437	100.000	299.805	290.070	9.500
133.200	23.087	53.909	1.000	41.172	4109.807	100.000	299.988	290.002	9.500
133.300	23.094	53.888	1.000	41.172	4129.219	100.000	299.949	289.955	9.500
133.400	23.098	53.873	1.000	41.169	4103.758	100.000	300.128	289.912	9.500
133.500	23.098	53.870	1.000	41.172	4129.642	100.000	300.344	289.834	9.500
133.600	23.098	53.868	1.000	41.171	4109.150	100.000	300.321	289.788	9.500
133.700	23.098	53.867	1.000	41.172	4119.892	100.000	299.814	289.771	9.500
133.800	23.098	53.868	1.000	41.172	4099.546	100.000	300.207	289.730	9.500
133.900	23.098	53.867	1.000	41.171	4129.418	100.000	300.863	289.642	9.500
134.000	23.101	53.856	1.000	41.171	4105.537	100.000	300.318	289.609	9.500
134.100	23.110	53.834	1.000	41.171	4124.555	93.900	301.020	289.515	9.500
134.200	23.112	53.824	1.000	41.172	4108.326	77.234	300.765	289.477	9.500
134.300	23.113	53.821	1.000	41.131	4110.924	71.667	297.801	289.524	9.500
134.400	23.111	53.821	1.000	41.072	3930.719	71.260	275.058	290.575	9.500
134.500	23.113	53.819	1.000	40.990	3701.891	71.260	266.826	291.205	9.500
134.600	23.113	53.819	1.000	40.933	3693.502	71.260	265.631	291.301	9.500
134.700	23.112	53.820	1.000	40.886	3700.601	70.329	265.521	291.345	9.500
134.800	23.114	53.818	1.000	40.826	3708.667	66.022	266.289	291.268	9.104
134.900	23.118	53.793	1.000	40.733	3658.888	64.349	261.340	291.475	9.000
135.000	23.122	53.781	1.000	40.594	3456.899	64.173	242.505	292.419	9.000
135.100	23.123	53.774	1.000	40.489	3299.191	64.173	234.500	293.018	9.000
135.200	23.125	53.773	1.000	40.392	3325.049	63.258	232.811	293.169	9.000
135.300	23.124	53.773	1.000	40.291	3303.651	62.992	233.122	293.208	9.000
135.400	23.125	53.774	1.000	40.194	3356.235	62.992	234.065	293.187	9.000
135.500	23.124	53.773	1.000	40.089	3326.295	62.992	232.631	293.275	9.000
135.600	23.127	53.766	1.000	39.986	3350.494	62.992	233.093	293.276	9.000
135.700	23.132	53.746	1.000	39.853	3328.227	62.992	231.765	293.356	9.000
135.800	23.133	53.737	1.000	39.752	3356.168	62.992	232.145	293.350	9.000
135.900	23.134	53.732	1.000	39.654	3349.391	62.992	232.961	293.331	9.000
136.000	23.135	53.734	1.000	39.557	3381.371	62.992	232.773	293.348	9.000
136.100	23.134	53.734	1.000	39.460	3362.111	62.992	232.129	293.386	9.000
136.200	23.135	53.733	1.000	39.365	3391.059	62.992	232.794	293.362	9.000
136.300	23.135	53.733	1.000	39.272	3396.901	62.992	233.045	293.350	9.000
136.400	23.136	53.732	1.000	39.211	3392.533	62.992	232.497	293.364	9.000
136.500	23.140	53.720	1.000	39.119	3417.533	62.992	232.676	293.380	9.000
136.600	23.143	53.706	1.000	39.017	3401.839	62.992	232.683	293.362	9.000
136.700	23.144	53.702	1.000	38.923	3438.811	62.992	231.909	293.383	9.000
136.800	23.145	53.702	1.000	38.822	3405.372	62.992	232.865	293.362	9.000
136.900	23.146	53.702	1.000	38.725	3451.776	62.992	232.489	293.383	9.000
137.000	23.146	53.701	1.000	38.631	3425.406	59.890	232.923	293.358	9.000
137.100	23.146	53.701	1.000	38.523	3407.878	58.125	227.817	293.557	9.000
137.200	23.147	53.699	1.000	38.380	3226.590	57.874	214.429	294.213	9.000
137.300	23.152	53.681	1.000	38.232	3072.506	57.874	204.040	294.855	9.000
137.400	23.156	53.673	1.000	38.095	3063.080	57.874	202.688	295.012	9.000
137.500	23.156	53.671	1.000	37.948	3070.436	57.874	203.174	295.037	9.000
137.600	23.157	53.670	1.000	37.838	3111.892	57.874	203.940	295.038	9.000
137.700	23.156	53.671	1.000	37.694	3078.197	57.874	202.920	295.106	9.000
137.800	23.157	53.670	1.000	37.556	3122.585	57.874	203.174	295.130	8.608
137.900	23.157	53.670	1.000	37.438	3094.698	57.874	202.655	295.149	8.500
138.000	23.157	53.670	1.000	37.299	3124.122	57.874	201.825	295.212	8.500
138.100	23.159	53.657	1.000	37.159	3106.123	57.874	201.968	295.234	8.500
138.200	23.165	53.644	1.000	37.049	3131.413	57.874	201.961	295.257	8.500
138.300	23.165	53.639	1.000	36.914	3151.475	57.874	202.340	295.259	8.500
138.400	23.166	53.638	1.000	36.804	3134.998	57.874	201.624	295.318	8.500
138.500	23.166	53.637	1.000	36.673	3184.610	57.874	202.077	295.306	8.500
138.600	23.166	53.637	1.000	36.564	3146.481	57.874	201.420	295.342	8.500
138.700	23.166	53.637	1.000	36.429	3191.526	57.874	201.486	295.352	8.500
138.800	23.166	53.637	1.000	36.283	3161.355	57.874	201.219	295.374	8.500
138.900	23.170	53.618	1.000	36.181	3195.762	57.874	201.889	295.357	8.500
139.000	23.175	53.611	1.000	36.086	3206.475	57.874	201.211	295.389	8.500
139.100	23.176	53.606	1.000	35.939	3186.317	57.874	200.672	295.424	8.500
139.200	23.176	53.606	1.000	35.839	3254.511	57.874	201.268	295.403	8.500
139.300	23.176	53.606	1.000	35.740	3213.695	57.874	201.284	295.395	8.500
139.400	23.175	53.607	1.000	35.598	3243.888	57.874	200.532	295.450	8.500
139.500	23.176	53.606	1.000	35.498	3237.977	57.874	201.600	295.405	8.500
139.600	23.177	53.605	1.000	35.400	3263.076	57.874	201.178	295.443	8.500
139.700	23.178	53.599	1.000	35.305	3275.000	57.874	200.779	295.460	8.500
139.800	23.182	53.585	1.000	35.205	3241.912	57.874	200.383	295.479	8.500
139.900	23.184	53.580	1.000	35.063	3308.079	57.874	200.854	295.447	8.500
140.000	23.184	53.578	1.000	34.964	3275.412	57.874	201.044	295.441	8.500
140.100	23.183	53.578	1.000	34.864	3302.890	57.874	201.081	295.452	8.500
140.200	23.184	53.578	1.000	34.768	3308.253	57.874	200.635	295.472	8.500
140.300	23.183	53.578	1.000	34.667	3287.488	56.359	200.121	295.494	8.500
140.400	23.184	53.578	1.000	34.561	3328.572	52.826	199.819	295.521	8.500
140.500	23.189	53.571	1.000	34.383	3205.733	51.359	190.209	295.915	8.500
140.600	23.191	53.563	1.000	34.223	2998.783	51.181	173.966	296.759	8.500
140.700	23.192	53.561	1.000	34.042	2824.932	51.181	167.093	297.251	8.500
140.800	23.192	53.558	1.000	33.880	2818.377	51.181	167.732	297.299	8.500
140.900	23.192	53.559	1.000	33.734	2893.623	51.181	167.735	297.323	8.500
141.000	23.193	53.559	1.000	33.554	2843.657	51.181	167.783	297.361	8.500
141.100	23.193	53.559	1.000	33.406	2888.604	51.181	167.223	297.422	8.500
141.200	23.194	53.559	1.000	33.254	2898.736	51.181	167.271	297.447	8.500
141.300	23.195	53.556	1.000	33.103	2881.680	51.181	167.687	297.477	8.500
141.400	23.198	53.554	1.000	32.956	2937.116	51.181	167.197	297.516	8.500
141.500	23.199	53.550	1.000	32.808	2894.917	51.181	166.234	297.588	8.500
141.600	23.199	53.549	1.000	32.661	2939.919	51.181	167.047	297.573	8.500
141.700	23.199	53.547	1.000	32.515	2972.805	51.181	167.084	297.587	8.500
141.800	23.199	53.548	1.000	32.368	2938.506	50.267	166.809	297.628	8.113
141.900	23.200	53.548	1.000	32.217	2975.484	49.073	165.672	297.712	8.000
142.000	23.198	53.547	1.000	32.027	2944.464	47.270	162.955	297.845	8.000
142.100	23.202	53.546	1.000	31.880	2862.615	46.244	159.750	298.011	8.000
142.200	23.204	53.543	1.000	31.648	2789.748	45.139	152.401	298.422	8.000
142.300	23.205	53.541	1.000	31.448	2621.014	44.882	143.937	298.856	8.000
142.400	23.205	53.540	1.000	31.285	2605.093	44.882	141.737	299.094	8.000
142.500	23.205	53.540	1.000	31.108	2644.242	44.882	142.048	299.124	8.000
142.600	23.205	53.540	1.000	30.910	2616.012	44.882	141.659	299.192	8.000
142.700	23.203	53.540	1.000	30.719	2663.787	44.882	141.258	299.239	8.000
142.800	23.204	53.540	1.000	30.521	2659.966	44.882	141.237	299.282	8.000
142.900	23.205	53.538	1.000	30.336	2647.426	44.882	141.174	299.332	8.000
143.000	23.208	53.534	1.000	30.175	2705.515	44.882	140.571	299.379	8.000
143.100	23.208	53.534	1.000	29.983	2673.044	44.882	140.364	299.422	8.000
143.200	23.209	53.530	1.000	29.790	2676.876	44.882	139.470	299.513	8.000
143.300	23.208	53.531	1.000	29.633	2731.729	44.276	139.528	299.547	8.000
143.400	23.208	53.532	1.000	29.447	2680.863	44.095	138.115	299.626	8.000
143.500	23.208	53.533	1.000	29.251	2659.907	43.192	135.593	299.799	8.000
143.600	23.208	53.530	1.000	29.057	2659.022	42.913	132.962	299.957	8.000
143.700	23.211	53.531	1.000	28.864	2574.875	42.913	129.722	300.137	8.000
143.800	23.213	53.527	1.000	28.667	2576.419	42.913	128.796	300.261	8.000
143.900	23.214	53.526	1.000	28.471	2607.447	42.913	127.963	300.336	8.000
144.000	23.215	53.524	1.000	28.277	2555.623	42.298	125.948	300.459	8.000
144.100	23.213	53.526	1.000	28.079	2570.121	40.326	126.149	300.497	8.000
144.200	23.213	53.526	1.000	27.838	2587.204	38.241	124.439	300.573	8.000
144.300	23.214	53.525	1.000	27.587	2413.824	35.648	117.257	300.954	8.000
144.400	23.215	53.524	1.000	27.297	2238.756	32.567	106.067	301.525	8.000
144.500	23.214	53.526	1.000	27.004	2084.716	30.377	96.795	302.077	8.000
144.600	23.214	53.526	1.000	26.670	1860.714	27.520	85.841	302.692	8.000
144.700	23.215	53.524	1.000	26.323	1679.559	24.666	75.674	303.268	8.000
144.800	23.214	53.526	1.000	25.931	1520.503	21.613	65.946	303.853	8.000
144.900	23.215	53.527	1.000	25.541	1299.846	17.789	57.157	304.391	8.000
145.000	23.213	53.526	1.000	25.097	1126.093	16.063	46.982	304.984	8.000
145.100	23.214	53.525	1.000	24.649	895.039	14.273	34.933	305.678	8.000
145.200	23.214	53.526	1.000	24.169	659.724	13.180	29.004	306.110	8.000
145.300	23.214	53.527	1.000	23.672	487.474	9.642	23.501	306.455	8.000
145.400	23.213	53.531	1.000	23.138	429.599	3.409	19.196	306.790	8.000
145.500	23.214	53.533	1.000	22.556	189.126	0.431	7.659	307.393	8.000
145.600	23.214	53.531	1.000	21.925	-106.324	0.000	-0.712	307.991	8.000
145.700	23.215	53.533	1.000	21.285	-402.242	0.000	-12.973	308.609	8.000
145.800	23.215	53.531	1.000	20.655	-741.796	0.000	-19.543	309.160	8.000
145.900	23.213	53.532	1.000	20.022	-693.460	0.000	-18.243	309.263	8.000
146.000	23.215	53.530	1.000	19.392	-680.112	0.000	-16.876	309.318	8.000
146.100	23.213	53.533	1.000	18.783	-706.446	0.000	-16.967	309.426	8.000
146.200	23.212	53.536	1.000	18.166	-691.996	0.000	-15.643	309.471	8.000
146.300	23.212	53.540	1.000	17.530	-646.734	0.000	-14.647	309.491	8.000
146.400	23.212	53.542	1.000	16.907	-646.840	0.000	-14.163	309.547	8.000
146.500	23.210	53.542	1.000	16.270	-691.551	0.000	-13.880	309.647	8.000
146.600	23.212	53.543	1.000	15.672	-659.512	0.000	-13.054	309.684	8.000
146.700	23.212	53.543	1.000	15.054	-607.090	0.000	-11.609	309.704	8.000
146.800	23.212	53.542	1.000	14.472	-574.840	0.000	-10.344	309.728	8.000
146.900	23.209	53.544	1.000	13.868	-555.808	0.000	-9.474	309.777	8.000
147.000	23.208	53.553	1.000	13.241	-562.776	0.000	-8.680	309.816	8.000
147.100	23.207	53.559	1.000	12.649	-524.172	0.000	-7.445	309.840	8.000
147.200	23.206	53.559	1.000	12.060	-471.075	0.000	-6.592	309.867	8.000
147.300	23.204	53.561	1.000	11.473	-452.771	0.000	-6.001	309.898	8.000
147.400	23.205	53.561	1.000	10.886	-450.723	0.000	-5.685	309.933	8.000
147.500	23.205	53.561	1.000	10.301	-398.627	0.000	-4.691	309.938	8.000
147.600	23.207	53.562	1.000	9.724	-366.724	0.618	-3.907	309.972	8.000
147.700	23.204	53.562	1.000	9.183	-347.571	0.787	-3.026	309.992	8.000
147.800	23.202	53.572	1.000	8.652	-243.203	0.787	-1.469	309.989	8.000
147.900	23.201	53.585	1.000	8.109	-149.667	2.301	-0.309	309.985	8.000
148.000	23.198	53.590	1.000	7.579	-101.565	4.289	0.323	310.021	8.000
148.100	23.200	53.592	1.000	7.128	-27.549	4.724	1.410	310.035	8.000
148.200	23.198	53.591	1.000	6.654	311.420	4.724	6.034	309.863	8.000
148.300	23.199	53.592	1.000	6.197	483.097	4.128	6.862	309.864	8.000
148.400	23.200	53.591	1.000	5.707	481.429	0.849	6.848	309.883	8.000
148.500	23.198	53.593	1.000	5.177	393.329	0.000	5.118	310.006	8.000
148.600	23.194	53.610	1.000	4.602	-1.551	0.000	1.237	310.243	8.000
148.700	23.192	53.621	1.000	4.070	-94.592	0.000	0.579	310.334	8.000
148.800	23.190	53.624	1.000	3.524	-67.431	0.000	0.621	310.401	8.000
148.900	23.190	53.624	1.000	3.015	-69.886	0.000	0.727	310.448	8.000
149.000	23.191	53.624	1.000	2.506	-26.405	0.000	0.892	310.495	8.000
149.100	23.190	53.625	1.000	1.963	5.405	0.000	1.100	310.553	8.000
149.200	23.190	53.624	1.000	1.466	93.955	0.000	1.477	310.577	8.000
149.300	23.190	53.625	1.000	1.025	212.047	0.000	1.816	310.597	8.000
149.400	23.189	53.636	1.000	0.555	356.843	0.000	2.079	310.635	8.000
149.500	23.183	53.655	1.000	0.188	485.807	0.000	2.050	310.670	8.000
149.600	23.181	53.664	1.000	0.152	526.523	0.000	1.704	310.727	8.000
149.700	23.181	53.666	1.000	0.239	433.382	0.000	1.481	310.789	8.000
149.800	23.179	53.666	1.000	0.335	434.314	0.000	1.646	310.829	8.000
149.900	23.182	53.669	1.000	0.476	607.879	0.000	2.135	310.864	8.000
150.000	23.179	53.668	1.000	0.623	736.563	0.000	2.510	310.881	8.000
150.100	23.180	53.670	1.000	0.484	678.886	0.000	2.888	310.907	8.000
150.200	23.175	53.687	1.000	0.198	629.342	0.000	3.192	310.945	8.000
150.300	23.170	53.706	1.000	0.238	1079.700	0.000	2.813	311.010	8.000
150.400	23.168	53.713	1.000	0.377	1118.345	0.000	2.402	311.061	8.000
150.500	23.167	53.715	1.000	0.527	788.948	0.000	2.457	311.086	8.000
150.600	23.166	53.715	1.000	0.603	892.827	0.000	2.786	311.124	8.000
150.700	23.169	53.715	1.000	0.425	741.602	0.000	3.076	311.141	8.000
150.800	23.167	53.715	1.000	0.193	584.833	0.000	3.373	311.193	8.000
150.900	23.167	53.715	1.000	0.284	1231.766	0.000	2.814	311.251	8.000
151.000	23.163	53.723	1.000	0.384	1043.084	0.000	2.380	311.324	8.000
151.100	23.157	53.745	1.000	0.521	790.732	0.000	2.571	311.357	8.000
151.200	23.154	53.760	1.000	0.613	897.578	0.000	2.971	311.374	8.000
151.300	23.150	53.763	1.000	0.339	681.587	0.000	3.194	311.393	8.000
151.400	23.151	53.764	1.000	0.111	-156.067	0.000	3.255	311.460	8.000
151.500	23.152	53.764	1.000	0.273	206.362	0.000	2.765	311.489	8.000
151.600	23.152	53.765	1.000	0.429	720.004	0.000	2.403	311.554	8.000
151.700	23.151	53.766	1.000	0.574	859.716	0.000	2.517	311.583	8.000
151.800	23.146	53.778	1.000	0.563	900.152	0.000	2.942	311.606	8.000
151.900	23.138	53.803	1.000	0.264	560.242	0.000	3.232	311.633	8.000
152.000	23.137	53.812	1.000	0.201	964.980	0.000	3.219	311.679	8.000
152.100	23.134	53.815	1.000	0.331	1333.929	0.000	2.563	311.729	8.000
152.200	23.135	53.815	1.000	0.477	887.537	0.000	2.468	311.786	8.000
152.300	23.135	53.816	1.000	0.624	826.362	0.000	2.700	311.812	8.000
152.400	23.135	53.815	1.000	0.509	697.527	0.000	3.152	311.842	8.000
152.500	23.135	53.815	1.000	0.493	619.063	0.000	3.306	311.859	8.000
152.600	23.133	53.819	1.000	0.493	843.083	0.000	2.935	311.904	8.000
152.700	23.124	53.846	1.000	0.439	372.568	0.000	2.183	311.968	8.000
152.800	23.121	53.863	1.000	0.284	-186.191	0.000	1.628	312.039	8.000
152.900	23.119	53.868	1.000	0.046	-332.621	0.000	1.073	312.105	8.000
153.000	23.118	53.866	1.000	0.002	-327.586	0.000	0.914	312.148	8.000
153.100	23.119	53.868	1.000	0.000	-418.451	0.000	0.887	312.206	8.000
153.200	23.117	53.868	1.000	0.000	-56.382	0.000	0.887	312.231	8.000
153.300	23.118	53.868	1.000	0.133	3.632	0.000	0.924	312.265	8.000
153.400	23.113	53.880	1.000	0.094	125.114	0.000	0.901	312.311	8.000
153.500	23.103	53.907	1.000	0.010	6.333	0.000	0.869	312.347	8.000
153.600	23.100	53.919	1.000	0.000	-11.083	0.000	0.879	312.363	8.000
153.700	23.098	53.923	1.000	0.000	-11.203	0.000	0.889	312.405	8.000
153.800	23.098	53.924	1.000	0.042	-11.093	0.000	0.881	312.440	8.000
153.900	23.098	53.925	1.000	0.049	-11.138	0.000	0.868	312.482	8.000
154.000	23.098	53.925	1.000	0.006	-11.147	0.000	0.876	312.507	8.000
154.100	23.098	53.926	1.000	0.000	-11.273	0.000	0.880	312.537	8.000
154.200	23.098	53.926	1.000	0.000	-11.227	0.000	0.886	312.586	8.000
154.300	23.090	53.952	1.000	0.000	-11.026	0.000	0.868	312.618	8.000
154.400	23.086	53.972	1.000	0.000	-11.320	0.000	0.864	312.642	8.000
154.500	23.082	53.980	1.000	0.000	-10.979	0.000	0.864	312.684	8.000
154.600	23.082	53.981	1.000	0.000	-11.122	0.000	0.867	312.720	8.000
154.700	23.082	53.981	1.000	0.000	-11.083	0.000	0.858	312.736	8.000
154.800	23.080	53.981	1.000	0.000	-10.886	0.000	0.864	312.762	8.000
154.900	23.082	53.981	1.000	0.000	-11.113	0.000	0.858	312.801	8.000
155.000	23.079	53.988	1.000	0.000	-11.210	0.000	0.861	312.844	8.000
155.100	23.068	54.015	1.000	0.000	-11.092	0.000	0.861	312.860	8.000
155.200	23.063	54.032	1.000	0.000	-11.201	0.000	0.867	312.906	8.000
155.300	23.061	54.039	1.000	0.000	-11.156	0.000	0.749	312.952	8.000
155.400	23.061	54.039	1.000	0.000	-10.892	0.000	0.735	312.976	8.000
155.500	23.060	54.039	1.000	0.000	-11.177	0.000	0.735	313.003	8.000
155.600	23.059	54.039	1.000	0.000	-11.092	0.000	0.735	313.046	8.000
155.700	23.061	54.039	1.000	0.000	-11.198	0.000	0.731	313.058	8.000
155.800	23.060	54.040	1.000	0.000	-11.219	0.000	0.731	313.088	8.000
155.900	23.051	54.060	1.000	0.000	-11.219	0.000	0.734	313.134	8.000
156.000	23.043	54.086	1.000	0.000	-11.345	0.000	0.731	313.155	8.000
156.100	23.040	54.095	1.000	0.000	-11.021	0.000	0.731	313.197	8.000
156.200	23.040	54.096	1.000	0.000	-11.181	0.000	0.725	313.221	8.000
156.300	23.039	54.097	1.000	0.000	-10.965	0.000	0.744	313.244	8.000
156.400	23.040	54.097	1.000	0.000	-11.182	0.000	0.754	313.290	8.000
156.500	23.040	54.098	1.000	0.000	-11.282	0.000	0.745	313.314	8.000
156.600	23.038	54.100	1.000	0.000	-11.165	0.000	0.750	313.352	8.000
156.700	23.027	54.126	1.000	0.000	-11.210	0.000	0.760	313.372	8.000
156.800	23.019	54.147	1.000	0.000	-11.282	0.000	0.757	313.392	8.000
156.900	23.018	54.153	1.000	0.000	-11.039	0.000	0.751	313.426	8.000
157.000	23.016	54.153	1.000	0.000	-11.066	0.000	0.751	313.450	8.000
157.100	23.016	54.154	1.000	0.000	-11.075	0.000	0.751	313.473	8.000
157.200	23.015	54.155	1.000	0.000	-11.138	0.000	0.754	313.500	8.000
157.300	23.017	54.156	1.000	0.000	-11.020	0.000	0.751	313.546	8.000
157.400	23.017	54.156	1.000	0.000	-11.129	0.000	0.751	313.566	8.000
157.500	23.010	54.169	1.000	0.000	-11.147	0.000	0.751	313.590	8.000
157.600	23.000	54.196	1.000	0.000	-11.335	0.000	0.754	313.617	8.000
157.700	22.998	54.208	1.000	0.000	-11.425	0.000	0.760	313.662	8.000
157.800	22.995	54.211	1.000	0.000	-11.060	0.000	0.751	313.664	8.000
157.900	22.995	54.213	1.000	0.000	-11.003	0.000	0.751	313.694	8.000
158.000	22.995	54.213	1.000	0.000	-11.190	0.000	0.751	313.721	8.000
158.100	22.996	54.213	1.000	0.000	-11.093	0.000	0.748	313.752	8.000
158.200	22.995	54.215	1.000	0.000	-11.138	0.000	0.751	313.776	8.000
158.300	22.985	54.234	1.000	0.000	-11.210	0.000	0.751	313.822	8.000
158.400	22.977	54.256	1.000	0.000	-11.219	0.000	0.751	313.827	8.000
158.500	22.975	54.265	1.000	0.000	-11.282	0.000	0.757	313.868	8.000
158.600	22.975	54.267	1.000	0.000	-11.167	0.000	0.751	313.892	8.000
158.700	22.975	54.266	1.000	0.000	-11.084	0.000	0.754	313.919	8.000
158.800	22.975	54.266	1.000	0.000	-11.137	0.000	0.754	313.943	8.000
158.900	22.975	54.268	1.000	0.000	-11.084	0.000	0.739	313.970	8.000
159.000	22.975	54.268	1.000	0.000	-11.265	0.000	0.753	313.989	8.000
159.100	22.969	54.274	1.000	0.000	-11.228	0.000	0.754	314.020	8.000
159.200	22.959	54.303	1.000	0.000	-11.282	0.000	0.754	314.051	8.000
159.300	22.955	54.317	1.000	0.000	-11.165	0.000	0.757	314.075	8.000
159.400	22.954	54.322	1.000	0.000	-11.147	0.000	0.742	314.105	8.000
159.500	22.954	54.322	1.000	0.000	-11.084	0.000	0.753	314.129	8.000
159.600	22.954	54.325	1.000	0.000	-11.202	0.000	0.748	314.156	8.000
159.700	22.953	54.324	1.000	0.000	-11.092	0.000	0.751	314.176	8.000
159.800	22.952	54.326	1.000	0.000	-11.011	0.000	0.748	314.199	8.000
159.900	22.946	54.341	1.000	0.000	-11.193	0.000	0.751	314.215	8.000
160.000	22.938	54.365	1.000	0.000	-11.030	0.000	0.754	314.234	8.000
160.100	22.935	54.373	1.000	0.000	-11.253	0.000	0.754	314.268	8.000
160.200	22.934	54.376	1.000	0.000	-11.227	0.000	0.751	314.288	8.000
160.300	22.935	54.376	1.000	0.000	-11.219	0.000	0.745	314.311	8.000
160.400	22.934	54.376	1.000	0.000	-11.219	0.000	0.905	314.324	8.000
160.500	22.935	54.377	1.000	0.000	-11.219	0.000	0.785	314.365	8.000
160.600	22.934	54.377	1.000	0.000	-11.219	0.000	0.767	314.400	8.000
160.700	22.933	54.384	1.000	0.000	-11.219	0.000	0.776	314.420	8.000
160.800	22.923	54.406	1.000	0.000	-11.155	0.000	1.192	314.414	8.000
160.900	22.917	54.421	1.000	0.000	-11.210	0.000	1.353	314.447	8.000
161.000	22.916	54.425	1.000	0.000	-11.219	0.000	1.337	314.452	8.000
161.100	22.916	54.427	1.000	0.000	-11.219	0.000	0.735	314.504	8.000
161.200	22.917	54.425	1.000	0.000	-11.219	0.000	0.678	314.529	8.000
161.300	22.917	54.425	1.000	0.000	-11.095	0.000	0.655	314.560	8.000
161.400	22.917	54.428	1.000	0.000	-11.075	0.000	0.666	314.587	8.000
161.500	22.910	54.437	1.000	0.000	-10.822	0.000	0.667	314.610	8.000
161.600	22.899	54.458	1.000	0.000	-11.166	0.000	0.657	314.619	8.000
161.700	22.895	54.466	1.000	0.000	-11.156	0.000	0.638	314.645	8.000
161.800	22.894	54.470	1.000	0.000	-11.022	0.000	0.625	314.672	8.000
161.900	22.892	54.470	1.000	0.000	-11.190	0.000	0.625	314.699	8.000
162.000	22.892	54.470	1.000	0.000	-10.969	0.000	0.640	314.726	8.000
162.100	22.893	54.473	1.000	0.000	-11.055	0.000	0.631	314.735	8.000
162.200	22.895	54.472	1.000	0.000	-11.075	0.000	0.622	314.750	8.000
162.300	22.892	54.473	1.000	0.000	-11.260	0.000	0.637	314.781	8.000
162.400	22.882	54.490	1.000	0.000	-11.166	0.000	0.641	314.808	8.000
162.500	22.878	54.502	1.000	0.000	-11.084	0.000	0.622	314.831	8.000
162.600	22.875	54.507	1.000	0.000	-11.201	0.000	0.618	314.844	8.000
162.700	22.875	54.509	1.000	0.000	-11.219	0.000	0.612	314.863	8.000
162.800	22.873	54.509	1.000	0.000	-11.219	0.000	0.633	314.889	8.000
162.900	22.875	54.510	1.000	0.000	-11.093	0.000	0.634	314.909	8.000
163.000	22.875	54.510	1.000	0.000	-11.136	0.000	0.622	314.940	8.000
163.100	22.871	54.515	1.000	0.000	-11.147	0.000	0.615	314.945	8.000
163.200	22.864	54.531	1.000	0.000	-11.209	0.000	0.615	314.975	8.000
163.300	22.859	54.543	1.000	0.000	-11.219	0.000	0.615	314.991	8.000
163.400	22.858	54.545	1.000	0.000	-11.219	0.000	0.602	315.014	8.000
163.500	22.857	54.546	1.000	0.000	-11.343	0.000	0.602	315.034	8.000
163.600	22.858	54.548	1.000	0.000	-11.115	0.000	0.596	315.053	8.000
163.700	22.858	54.548	1.000	0.000	-11.012	0.000	0.595	315.072	8.000
163.800	22.858	54.547	1.000	0.000	-11.128	0.000	0.602	315.095	8.000
163.900	22.856	54.550	1.000	0.000	-11.147	0.000	0.605	315.126	8.000
164.000	22.848	54.567	1.000	0.000	-11.147	0.000	0.596	315.139	8.000
164.100	22.840	54.578	1.000	0.000	-11.023	0.000	0.605	315.161	8.000
164.200	22.839	54.583	1.000	0.000	-11.188	0.000	0.605	315.177	8.000
164.300	22.838	54.585	1.000	0.000	-10.969	0.000	0.602	315.208	8.000
164.400	22.839	54.586	1.000	0.000	-11.056	0.000	0.593	315.216	8.000
164.500	22.839	54.586	1.000	0.000	-11.012	0.000	0.605	315.250	8.000
164.600	22.838	54.585	1.000	0.000	-11.128	0.000	0.605	315.270	8.000
164.700	22.836	54.590	1.000	0.000	-11.209	0.000	0.605	315.286	8.000
164.800	22.828	54.611	1.000	0.000	-11.157	0.000	0.608	315.305	8.000
164.900	22.822	54.620	1.000	0.000	-11.459	0.000	0.596	315.310	8.000
165.000	22.822	54.625	1.000	0.000	-11.195	0.000	0.595	315.351	8.000
165.100	22.821	54.626	1.000	0.000	-11.147	0.000	0.602	315.364	8.000
165.200	22.821	54.628	1.000	0.000	-11.147	0.000	0.602	315.379	8.000
165.300	22.822	54.627	1.000	0.000	-11.022	0.000	0.599	315.391	8.000
165.400	22.820	54.627	1.000	0.000	-11.064	0.000	0.602	315.418	8.000
165.500	22.819	54.627	1.000	0.000	-11.261	0.000	0.605	315.433	8.000
165.600	22.813	54.639	1.000	0.000	-11.166	0.000	0.605	315.453	8.000
165.700	22.805	54.658	1.000	0.000	-11.023	0.000	0.599	315.465	8.000
165.800	22.803	54.663	1.000	0.000	-11.064	0.000	0.599	315.491	8.000
165.900	22.803	54.666	1.000	0.000	-11.136	0.000	0.596	315.514	8.000
166.000	22.803	54.668	1.000	0.000	-11.208	0.000	0.599	315.530	8.000
166.100	22.805	54.668	1.000	0.000	-11.051	0.000	0.605	315.550	8.000
166.200	22.804	54.668	1.000	0.000	-11.243	0.000	0.605	315.569	8.000
166.300	22.803	54.669	1.000	0.000	-11.229	0.000	0.599	315.577	8.000
166.400	22.793	54.686	1.000	0.000	-10.973	0.000	0.605	315.600	8.000
166.500	22.789	54.698	1.000	0.000	-11.176	0.000	0.593	315.620	8.000
166.600	22.787	54.703	1.000	0.000	-10.973	0.000	0.605	315.643	8.000
166.700	22.787	54.706	1.000	0.000	-11.298	0.000	0.602	315.651	8.000
166.800	22.787	54.704	1.000	0.000	-11.424	0.000	0.584	315.688	8.000
166.900	22.787	54.705	1.000	0.000	-11.190	0.000	0.604	315.694	8.000
167.000	22.787	54.703	1.000	0.000	-11.085	0.000	0.593	315.720	8.000
167.100	22.787	54.706	1.000	0.000	-11.197	0.000	0.602	315.736	8.000
167.200	22.782	54.714	1.000	0.000	-11.096	0.000	0.605	315.752	8.000
167.300	22.773	54.731	1.000	0.000	-11.197	0.000	0.599	315.767	8.000
167.400	22.770	54.739	1.000	0.000	-11.219	0.000	0.599	315.775	8.000
167.500	22.768	54.740	1.000	0.000	-11.219	0.000	0.599	315.798	8.000
167.600	22.768	54.743	1.000	0.000	-11.219	0.000	0.599	315.832	8.000
167.700	22.768	54.742	1.000	0.000	-11.096	0.000	0.599	315.841	8.000
167.800	22.769	54.742	1.000	0.000	-11.380	0.000	0.602	315.849	8.000
167.900	22.768	54.743	1.000	0.000	-11.250	0.000	0.596	315.875	8.000
168.000	22.759	54.757	1.000	0.000	-11.095	0.000	0.599	315.884	8.000
168.100	22.755	54.773	1.000	0.000	-11.198	0.000	0.599	315.899	8.000
168.200	22.752	54.778	1.000	0.000	-11.219	0.000	0.605	315.918	8.000
168.300	22.752	54.778	1.000	0.000	-11.095	0.000	0.599	315.927	8.000
168.400	22.751	54.779	1.000	0.000	-11.136	0.000	0.599	315.946	8.000
168.500	22.751	54.781	1.000	0.000	-11.147	0.000	0.599	315.965	8.000
168.600	22.751	54.780	1.000	0.000	-11.147	0.000	0.599	315.977	8.000
168.700	22.751	54.779	1.000	0.000	-11.085	0.000	0.596	316.011	8.000
168.800	22.751	54.779	1.000	0.000	-11.075	0.000	0.595	316.012	8.000
168.900	22.751	54.779	1.000	0.000	-11.075	0.000	0.595	316.012	8.000
169.000	22.751	54.779	1.000	0.000	-11.075	0.000	0.595	316.012	8.000
169.100	22.751	54.779	1.000	0.000	-11.075	0.000	0.595	316.012	8.000
169.200	22.751	54.779	1.000	0.000	-11.075	0.000	0.595	316.012	8.000
169.300	22.751	54.779	1.000	0.000	-11.075	0.000	0.595	316.012	8.000
169.400	22.751	54.779	1.000	0.000	-11.075	0.000	0.595	316.012	8.000
169.500	22.751	54.779	1.000	0.000	-11.075	0.000	0.595	316.012	8.000
169.600	22.751	54.779	1.000	0.000	-11.075	0.000	0.595	316.012	8.000
169.700	22.751	54.779	1.000	0.000	-11.075	0.000	0.595	316.012	8.000
169.800	22.751	54.779	1.000	0.000	-11.075	0.000	0.595	316.012	8.000
169.900	22.751	54.779	1.000	0.000	-11.075	0.000	0.595	316.012	8.000
170.000	22.751	54.779	1.000	0.000	-11.075	0.000	0.595	316.012	8.000
170.100	22.751	54.779	1.000	0.000	-11.075	0.000	0.595	316.012	8.000
170.200	22.751	54.779	1.000	0.000	-11.075	0.000	0.595	316.012	8.000
170.300	22.751	54.779	1.000	0.000	-11.075	0.000	0.595	316.012	8.000
170.400	22.751	54.779	1.000	0.000	-11.075	0.000	0.595	316.012	8.000
170.500	22.751	54.779	1.000	0.000	-11.075	0.000	0.595	316.012	8.000
170.600	22.751	54.779	1.000	0.000	-11.075	0.000	0.595	316.012	8.000
170.700	22.751	54.779	1.000	0.000	-11.075	0.000	0.595	316.012	8.000
170.800	22.751	54.779	1.000	0.000	-11.075	0.000	0.595	316.012	8.000
170.900	22.751	54.779	1.000	0.000	-11.075	0.000	0.595	316.012	8.000
171.000	22.751	54.779	1.000	0.000	-11.075	0.000	0.595	316.012	8.000
171.100	22.751	54.779	1.000	0.000	-11.075	0.000	0.595	316.012	8.000
171.200	22.751	54.779	1.000	0.000	-11.075	0.000	0.595	316.012	8.000
171.300	22.751	54.779	1.000	0.000	-11.075	0.000	0.595	316.012	8.000
171.400	22.751	54.779	1.000	0.000	-11.075	0.000	0.595	316.012	8.000
171.500	22.751	54.779	1.000	0.000	-11.075	0.000	0.595	316.012	8.000
171.600	22.751	54.779	1.000	0.000	-11.075	0.000	0.595	316.012	8.000
171.700	22.751	54.779	1.000	0.000	-11.075	0.000	0.595	316.012	8.000
171.800	22.751	54.779	1.000	0.000	-11.075	0.000	0.595	316.012	8.000
171.900	22.751	54.779	1.000	0.000	-11.075	0.000	0.595	316.012	8.000
172.000	22.751	54.779	1.000	0.000	-11.075	0.000	0.595	316.012	8.000
172.100	22.751	54.779	1.000	0.000	-11.075	0.000	0.595	316.012	8.000
172.200	22.751	54.779	1.000	0.000	-11.075	0.000	0.595	316.012	8.000
172.300	22.751	54.779	1.000	0.000	-11.075	0.000	0.595	316.012	8.000
172.400	22.751	54.779	1.000	0.000	-11.075	0.000	0.595	316.012	8.000
172.500	22.751	54.779	1.000	0.000	-11.075	0.000	0.595	316.012	8.000
172.600	22.751	54.779	1.000	0.000	-11.075	0.000	0.595	316.012	8.000
172.700	22.751	54.779	1.000	0.000	-11.075	0.000	0.595	316.012	8.000
172.800	22.751	54.779	1.000	0.000	-11.075	0.000	0.595	316.012	8.000
172.900	22.751	54.779	1.000	0.000	-11.075	0.000	0.595	316.012	8.000
173.000	22.751	54.779	1.000	0.000	-11.075	0.000	0.595	316.012	8.000
173.100	22.751	54.779	1.000	0.000	-11.075	0.000	0.595	316.012	8.000
173.200	22.751	54.779	1.000	0.000	-11.075	0.000	0.595	316.012	8.000
173.300	22.751	54.779	1.000	0.000	-11.075	0.000	0.595	316.012	8.000
173.400	22.751	54.779	1.000	0.000	-11.075	0.000	0.595	316.012	8.000
173.500	22.751	54.779	1.000	0.000	-11.075	0.000	0.595	316.012	8.000
173.600	22.751	54.779	1.000	0.000	-11.075	0.000	0.595	316.012	8.000
173.700	22.751	54.779	1.000	0.000	-11.075	0.000	0.595	316.012	8.000
173.800	22.751	54.779	1.000	0.000	-11.075	0.000	0.595	316.012	8.000
173.900	22.751	54.779	1.000	0.000	-11.075	0.000	0.595	316.012	8.000
174.000	22.751	54.779	1.000	0.000	-11.075	0.000	0.595	316.012	8.000
174.100	22.751	54.779	1.000	0.000	-11.075	0.000	0.595	316.012	8.000
174.200	22.751	54.779	1.000	0.000	-11.075	0.000	0.595	316.012	8.000
174.300	22.751	54.779	1.000	0.000	-11.075	0.000	0.595	316.012	8.000
174.400	22.751	54.779	1.000	0.000	-11.075	0.000	0.595	316.012	8.000
174.500	22.751	54.779	1.000	0.000	-11.075	0.000	0.595	316.012	8.000
174.600	22.751	54.779	1.000	0.000	-11.075	0.000	0.595	316.012	8.000
174.700	22.751	54.779	1.000	0.000	-11.075	0.000	0.595	316.012	8.000
174.800	22.751	54.779	1.000	0.000	-11.075	0.000	0.595	316.012	8.000
174.900	22.751	54.779	1.000	0.000	-11.075	0.000	0.595	316.012	8.000
175.000	22.751	54.779	1.000	0.000	-11.075	0.000	0.595	316.012	8.000
175.100	22.751	54.779	1.000	0.000	-11.075	0.000	0.595	316.012	8.000
175.200	22.751	54.779	1.000	0.000	-11.075	0.000	0.595	316.012	8.000
175.300	22.751	54.779	1.000	0.000	-11.075	0.000	0.595	316.012	8.000
175.400	22.751	54.779	1.000	0.000	-11.075	0.000	0.595	316.012	8.000
175.500	22.751	54.779	1.000	0.000	-11.075	0.000	0.595	316.012	8.000
175.600	22.751	54.779	1.000	0.000	-11.075	0.000	0.595	316.012	8.000
175.700	22.751	54.779	1.000	0.000	-11.075	0.000	0.595	316.012	8.000
175.800	22.751	54.779	1.000	0.000	-11.075	0.000	0.595	316.012	8.000
175.900	22.751	54.779	1.000	0.000	-11.075	0.000	0.595	316.012	8.000
176.000	22.751	54.779	1.000	0.000	-11.075	0.000	0.595	316.012	8.000
176.100	22.751	54.779	1.000	0.000	-11.075	0.000	0.595	316.012	8.000
176.200	22.751	54.779	1.000	0.000	-11.075	0.000	0.595	316.012	8.000
176.300	22.751	54.779	1.000	0.000	-11.075	0.000	0.595	316.012	8.000
176.400	22.751	54.779	1.000	0.000	-11.075	0.000	0.595	316.012	8.000
176.500	22.751	54.779	1.000	0.000	-11.075	0.000	0.595	316.012	8.000
176.600	22.751	54.779	1.000	0.000	-11.075	0.000	0.595	316.012	8.000
176.700	22.751	54.779	1.000	0.000	-11.075	0.000	0.595	316.012	8.000
176.800	22.751	54.779	1.000	0.000	-11.075	0.000	0.595	316.012	8.000
176.900	22.751	54.779	1.000	0.000	-11.075	0.000	0.595	316.012	8.000
177.000	22.751	54.779	1.000	0.000	-11.075	0.000	0.595	316.012	8.000
177.100	22.751	54.779	1.000	0.000	-11.075	0.000	0.595	316.012	8.000
177.200	22.751	54.779	1.000	0.000	-11.075	0.000	0.595	316.012	8.000
177.300	22.751	54.779	1.000	0.000	-11.075	0.000	0.595	316.012	8.000
177.400	22.751	54.779	1.000	0.000	-11.075	0.000	0.595	316.012	8.000
177.500	22.751	54.779	1.000	0.000	-11.075	0.000	0.595	316.012	8.000
177.600	22.751	54.779	1.000	0.000	-11.075	0.000	0.595	316.012	8.000
177.700	22.751	54.779	1.000	0.000	-11.075	0.000	0.595	316.012	8.000
177.800	22.751	54.779	1.000	0.000	-11.075	0.000	0.595	316.012	8.000
177.900	22.751	54.779	1.000	0.000	-11.075	0.000	0.595	316.012	8.000
178.000	22.751	54.779	1.000	0.000	-11.075	0.000	0.595	316.012	8.000
178.100	22.751	54.779	1.000	0.000	-11.075	0.000	0.595	316.012	8.000
178.200	22.751	54.779	1.000	0.000	-11.075	0.000	0.595	316.012	8.000
178.300	22.751	54.779	1.000	0.000	-11.075	0.000	0.595	316.012	8.000
178.400	22.751	54.779	1.000	0.000	-11.075	0.000	0.595	316.012	8.000
178.500	22.751	54.779	1.000	0.000	-11.075	0.000	0.595	316.012	8.000
178.600	22.751	54.779	1.000	0.000	-11.075	0.000	0.595	316.012	8.000
178.700	22.751	54.779	1.000	0.000	-11.075	0.000	0.595	316.012	8.000
