Time[sec]	Dyno_Speed[mph]	Dyno_Tractive_Effort[N]	Test_Cell_Temp[C]	Test_Cell_RH[%]	Phase_#	HV_Battery_Current[A]	HV_Battery_Voltage[V]	HV_Battery_SOC[%]	Accelerator_Pedal_Position[%]
-10.000	0.009	-12.431	29.117	51.501	0.000	0.048	0.484	0.000	0.000
-9.900	0.010	-12.215	29.116	51.500	0.000	0.049	0.485	0.000	0.000
-9.800	0.010	-12.219	29.116	51.500	0.000	0.052	0.489	0.000	0.000
-9.700	0.009	-12.290	29.117	51.501	0.000	0.051	0.496	0.000	0.000
-9.600	0.009	-12.285	29.117	51.502	0.000	0.051	0.488	0.000	0.000
-9.500	0.010	-12.256	29.117	51.503	0.000	0.050	0.488	0.000	0.000
-9.400	0.010	-12.281	29.117	51.503	0.000	0.051	0.492	0.000	0.000
-9.300	0.010	-12.211	29.117	51.503	0.000	0.051	0.496	0.000	0.000
-9.200	0.010	-12.297	29.117	51.503	0.000	0.050	0.492	0.000	0.000
-9.100	0.009	-12.242	29.117	51.503	0.000	0.050	0.495	0.000	0.000
-9.000	0.010	-12.334	29.117	51.503	0.000	0.049	0.477	0.000	0.000
-8.900	0.010	-12.305	29.117	51.503	0.000	0.049	0.478	0.000	0.000
-8.800	0.010	-12.468	29.117	51.504	0.000	0.051	0.496	0.000	0.000
-8.700	0.009	-12.360	29.117	51.505	0.000	0.053	0.492	0.000	0.000
-8.600	0.009	-12.312	29.117	51.505	0.000	0.050	0.496	0.000	0.000
-8.500	0.010	-12.264	29.117	51.504	0.000	0.051	0.493	0.000	0.000
-8.400	0.010	-12.264	29.117	51.504	0.000	0.050	0.499	0.000	0.000
-8.300	0.010	-12.321	29.117	51.505	0.000	0.050	0.485	0.000	0.000
-8.200	0.010	-12.401	29.117	51.505	0.000	0.050	0.492	0.000	0.000
-8.100	0.009	-12.378	29.117	51.504	0.000	0.050	0.488	0.000	0.000
-8.000	0.009	-12.488	29.117	51.505	0.000	0.050	0.488	0.000	0.000
-7.900	0.009	-12.279	29.117	51.506	0.000	0.049	0.485	0.000	0.000
-7.800	0.009	-12.222	29.117	51.506	0.000	0.051	0.504	0.000	0.000
-7.700	0.010	-12.338	29.117	51.506	0.000	0.053	0.499	0.000	0.000
-7.600	0.010	-12.242	29.117	51.506	0.000	0.051	0.485	0.000	0.000
-7.500	0.010	-12.259	29.117	51.507	0.000	0.048	0.492	0.000	0.000
-7.400	0.010	-12.375	29.117	51.508	0.000	0.049	0.492	0.000	0.000
-7.300	0.010	-12.334	29.117	51.508	0.000	0.055	0.492	0.000	0.000
-7.200	0.010	-12.408	29.117	51.508	0.000	0.049	0.492	0.000	0.000
-7.100	0.009	-12.408	29.117	51.509	0.000	0.052	0.488	0.000	0.000
-7.000	0.009	-12.461	29.117	51.509	0.000	0.047	0.477	0.000	0.000
-6.900	0.009	-12.462	29.117	51.509	0.000	0.060	0.489	0.000	0.000
-6.800	0.010	-12.220	29.117	51.510	0.000	0.063	0.496	0.000	0.000
-6.700	0.009	-12.362	29.117	51.509	0.000	0.062	0.496	0.000	0.000
-6.600	0.010	-12.242	29.117	51.511	0.000	0.062	0.492	0.000	0.000
-6.500	0.009	-12.032	29.117	51.512	0.000	0.063	0.492	0.000	0.000
-6.400	0.009	-12.155	29.117	51.511	0.000	0.063	0.477	0.000	0.000
-6.300	0.009	-12.296	29.117	51.511	0.000	0.066	0.489	-4.965	0.000
-6.200	0.009	-12.192	29.117	51.511	0.000	0.064	0.496	-0.030	101.386
-6.100	0.010	-12.292	29.117	51.511	0.000	0.067	0.488	0.000	0.724
-6.000	0.010	-12.447	29.117	51.511	0.000	0.064	0.480	3.971	0.000
-5.900	0.009	-12.195	29.117	51.512	0.000	0.065	0.477	4.000	0.000
-5.800	0.010	-12.281	29.117	51.513	0.000	0.073	0.492	4.000	0.000
-5.700	0.010	-12.286	29.117	51.513	0.000	0.073	0.496	4.000	0.000
-5.600	0.010	-12.369	29.117	51.512	0.000	0.098	1.326	4.000	0.000
-5.500	0.010	-12.230	29.117	51.512	0.000	1.198	39.200	4.000	0.000
-5.400	0.010	-12.426	29.117	51.513	0.000	0.323	308.000	4.000	0.000
-5.300	0.009	-12.320	29.117	51.512	0.000	0.099	316.288	4.000	0.000
-5.200	0.009	-12.165	29.117	51.512	0.000	0.109	317.018	4.000	0.000
-5.100	0.010	-12.226	29.117	51.512	0.000	0.363	316.925	4.000	0.000
-5.000	0.010	-12.353	29.117	51.513	0.000	0.279	316.944	4.000	0.000
-4.900	0.010	-12.400	29.117	51.513	0.000	0.266	316.952	4.000	0.000
-4.800	0.010	-12.330	29.117	51.514	0.000	0.271	316.970	4.000	0.000
-4.700	0.010	-12.201	29.117	51.515	0.000	0.575	316.902	4.000	0.000
-4.600	0.009	-12.228	29.117	51.515	0.000	0.436	316.925	4.000	0.000
-4.500	0.009	-12.255	29.117	51.514	0.000	0.428	316.947	4.000	0.000
-4.400	0.009	-12.272	29.117	51.515	0.000	0.422	316.925	4.000	0.000
-4.300	0.008	-12.227	29.117	51.515	0.000	0.416	316.932	4.000	0.000
-4.200	0.010	-12.378	29.117	51.516	0.000	0.420	316.928	4.000	0.000
-4.100	0.010	-12.324	29.117	51.516	0.000	0.415	316.929	4.000	0.000
-4.000	0.010	-12.425	29.116	51.516	0.000	0.405	316.932	4.000	0.000
-3.900	0.010	-12.334	29.116	51.516	0.000	0.403	316.925	4.000	0.000
-3.800	0.010	-12.307	29.116	51.515	0.000	0.410	316.933	4.000	0.000
-3.700	0.010	-12.351	29.116	51.515	0.000	0.411	316.948	4.000	0.000
-3.600	0.009	-12.223	29.116	51.516	0.000	0.408	316.948	4.000	0.000
-3.500	0.010	-12.205	29.117	51.516	0.000	0.364	316.952	4.000	0.000
-3.400	0.009	-12.379	29.117	51.516	0.000	0.201	316.998	4.000	0.000
-3.300	0.009	-12.444	29.117	51.515	0.000	0.211	317.002	4.000	0.000
-3.200	0.009	-12.473	29.117	51.516	0.000	0.207	316.991	4.000	0.000
-3.100	0.010	-12.272	29.116	51.516	0.000	0.202	316.990	4.000	0.000
-3.000	0.009	-12.352	29.117	51.517	0.000	0.202	316.964	4.000	0.000
-2.900	0.009	-12.472	29.117	51.517	0.000	0.201	316.975	4.000	0.000
-2.800	0.008	-12.308	29.117	51.517	0.000	0.206	316.979	4.000	0.000
-2.700	0.010	-12.300	29.117	51.518	0.000	0.205	316.990	4.000	0.000
-2.600	0.009	-12.270	29.117	51.518	0.000	0.205	316.983	4.000	0.000
-2.500	0.009	-12.437	29.117	51.517	0.000	0.205	316.987	4.000	0.000
-2.400	0.009	-12.231	29.117	51.519	0.000	0.198	316.983	4.000	0.000
-2.300	0.009	-12.299	29.116	51.520	0.000	0.196	316.971	4.000	0.000
-2.200	0.008	-12.270	29.117	51.519	0.000	0.198	316.983	4.000	0.000
-2.100	0.010	-12.500	29.116	51.520	0.000	0.197	316.979	4.000	0.000
-2.000	0.009	-12.053	29.117	51.520	0.000	0.195	316.979	4.000	0.000
-1.900	0.010	-12.618	29.117	51.520	0.000	0.195	316.979	4.000	0.000
-1.800	0.010	-12.303	29.117	51.519	0.000	0.202	316.983	4.000	0.000
-1.700	0.010	-12.404	29.117	51.519	0.000	0.258	316.990	4.000	0.000
-1.600	0.010	-12.056	29.117	51.520	0.000	0.251	316.979	4.000	0.000
-1.500	0.010	-12.442	29.117	51.520	0.000	0.250	316.987	4.000	0.000
-1.400	0.008	-12.230	29.116	51.519	0.000	0.250	316.983	4.000	0.000
-1.300	0.010	-12.370	29.117	51.519	0.000	0.249	316.975	4.000	0.000
-1.200	0.009	-12.192	29.117	51.520	0.000	0.252	316.971	4.000	0.000
-1.100	0.010	-12.302	29.117	51.520	0.000	0.247	316.979	4.000	0.000
-1.000	0.009	-12.480	29.117	51.519	0.000	0.245	316.967	4.000	0.000
-0.900	0.010	-12.229	29.117	51.519	0.000	0.247	316.971	4.000	0.000
-0.800	0.009	-12.300	29.116	51.519	0.000	0.252	317.002	4.000	0.000
-0.700	0.010	-12.372	29.116	51.519	0.000	0.252	316.983	4.000	0.000
-0.600	0.010	-12.300	29.117	51.519	0.000	0.248	316.983	4.000	0.000
-0.500	0.009	-12.229	29.116	51.521	0.000	0.245	316.975	4.000	0.000
-0.400	0.010	-12.369	29.117	51.519	0.000	0.243	316.975	4.000	0.000
-0.300	0.010	-12.337	29.116	51.521	0.000	0.246	316.975	4.000	0.000
-0.200	0.010	-12.159	29.116	51.521	0.000	0.244	316.975	4.000	0.000
-0.100	0.010	-12.297	29.117	51.520	0.000	0.245	316.983	4.000	0.000
-0.000	0.009	-12.441	29.116	51.519	0.000	0.244	316.967	4.000	0.000
0.100	0.010	-12.374	29.117	51.521	0.980	0.245	316.975	4.000	0.000
0.200	0.010	-12.208	29.117	51.520	1.000	0.245	316.979	4.000	0.000
0.300	0.010	-12.227	29.117	51.520	1.000	0.245	316.991	4.000	0.000
0.400	0.010	-12.332	29.117	51.520	1.000	0.243	316.979	4.000	0.000
0.500	0.010	-12.197	29.116	51.520	1.000	0.245	316.991	4.000	0.000
0.600	0.009	-12.088	29.116	51.519	1.000	0.245	316.994	4.000	0.000
0.700	0.010	-12.118	29.116	51.519	1.000	0.245	316.979	4.000	0.000
0.800	0.010	-12.190	29.116	51.519	1.000	0.244	316.975	4.000	0.000
0.900	0.009	-12.192	29.116	51.520	1.000	0.244	316.983	4.000	0.000
1.000	0.010	-12.330	29.117	51.520	1.000	0.239	316.967	4.000	0.000
1.100	0.010	-12.233	29.116	51.519	1.000	0.239	316.975	4.000	0.000
1.200	0.010	-12.296	29.116	51.519	1.000	0.246	316.983	4.000	0.000
1.300	0.009	-12.437	29.116	51.519	1.000	0.247	316.987	4.000	0.000
1.400	0.008	-12.101	29.116	51.520	1.000	0.244	316.983	4.000	0.000
1.500	0.010	-12.458	29.116	51.519	1.000	0.246	316.983	4.000	0.000
1.600	0.009	-12.211	29.116	51.519	1.000	0.244	316.994	4.000	0.000
1.700	0.010	-12.362	29.116	51.520	1.000	0.240	316.975	4.000	0.000
1.800	0.010	-12.203	29.116	51.519	1.000	0.245	316.979	4.000	0.000
1.900	0.009	-12.226	29.116	51.521	1.000	0.241	316.983	4.000	0.000
2.000	0.009	-12.329	29.116	51.520	1.000	0.240	316.971	4.000	0.000
2.100	0.009	-12.204	29.116	51.521	1.000	0.236	316.975	4.000	0.000
2.200	0.010	-12.259	29.116	51.520	1.000	0.242	316.987	4.000	0.000
2.300	0.009	-12.231	29.116	51.520	1.000	0.243	316.983	4.000	0.000
2.400	0.009	-12.195	29.116	51.518	1.000	0.240	316.983	4.000	0.000
2.500	0.010	-12.389	29.116	51.519	1.000	0.242	316.983	4.000	0.000
2.600	0.010	-12.342	29.116	51.519	1.000	0.241	316.983	4.000	0.000
2.700	0.010	-12.238	29.116	51.519	1.000	0.243	316.983	4.000	0.000
2.800	0.009	-12.195	29.116	51.518	1.000	0.241	316.983	4.000	0.000
2.900	0.009	-12.257	29.116	51.519	1.000	0.241	316.979	4.000	0.000
3.000	0.009	-12.134	29.116	51.518	1.000	0.234	316.971	4.000	0.000
3.100	0.010	-11.957	29.116	51.518	1.000	0.236	316.971	4.000	0.000
3.200	0.009	-12.202	29.116	51.517	1.000	0.241	316.983	4.000	0.000
3.300	0.010	-12.163	29.116	51.518	1.000	0.240	316.987	4.000	0.000
3.400	0.009	-12.220	29.116	51.517	1.000	0.238	316.983	4.000	0.000
3.500	0.010	-12.357	29.116	51.517	1.000	0.239	316.983	4.000	0.000
3.600	0.009	-12.340	29.116	51.517	1.000	0.237	316.979	4.000	0.000
3.700	0.010	-12.369	29.116	51.518	1.000	0.238	316.979	4.000	0.000
3.800	0.010	-12.403	29.116	51.518	1.000	0.238	316.987	4.000	0.000
3.900	0.010	-12.186	29.116	51.518	1.000	0.237	316.971	4.000	0.000
4.000	0.010	-12.124	29.116	51.518	1.000	0.233	316.964	4.000	0.000
4.100	0.009	-12.340	29.116	51.518	1.000	0.232	316.975	4.000	0.000
4.200	0.009	-12.213	29.116	51.517	1.000	0.234	316.987	4.000	0.000
4.300	0.009	-12.255	29.116	51.516	1.000	0.542	316.902	4.000	0.000
4.400	0.009	-12.169	29.116	51.516	1.000	0.421	316.939	4.000	0.000
4.500	0.009	-12.346	29.116	51.517	1.000	0.692	316.925	4.000	0.000
4.600	0.010	-12.245	29.116	51.516	1.000	0.765	316.925	4.000	0.000
4.700	0.116	-5.866	29.116	51.516	1.000	1.221	316.883	4.000	2.768
4.800	0.230	-22.273	29.116	51.517	1.000	2.069	316.836	4.000	9.126
4.900	0.377	268.406	29.116	51.516	1.000	2.936	316.779	4.000	13.942
5.000	0.577	848.880	29.115	51.517	1.000	5.083	316.647	4.000	16.763
5.100	0.844	1286.227	29.116	51.517	1.000	6.099	316.586	4.000	20.362
5.200	1.135	1485.415	29.116	51.516	1.000	7.469	316.500	4.000	23.189
5.300	1.420	1589.504	29.116	51.515	1.000	8.730	316.429	4.000	24.395
5.400	1.722	1669.748	29.116	51.515	1.000	9.609	316.375	4.000	24.798
5.500	2.032	1684.732	29.115	51.516	1.000	10.049	316.347	4.000	25.198
5.600	2.280	1667.445	29.115	51.515	1.000	10.978	316.297	4.000	25.200
5.700	2.567	1667.222	29.115	51.515	1.000	11.670	316.251	4.000	25.597
5.800	2.860	1643.004	29.115	51.515	1.000	12.290	316.215	4.000	25.997
5.900	3.142	1613.743	29.115	51.516	1.000	12.882	316.165	4.000	26.397
6.000	3.406	1592.339	29.115	51.516	1.000	13.191	316.118	4.000	26.400
6.100	3.690	1549.123	29.115	51.516	1.000	13.406	316.125	4.000	26.400
6.200	3.940	1493.314	29.115	51.515	1.000	13.589	316.110	4.000	26.400
6.300	4.185	1450.929	29.115	51.515	1.000	13.750	316.075	4.000	26.400
6.400	4.414	1411.344	29.115	51.515	1.000	13.877	316.075	4.000	26.400
6.500	4.654	1369.997	29.115	51.514	1.000	13.952	316.067	4.000	26.796
6.600	4.855	1307.809	29.115	51.513	1.000	14.033	316.044	4.000	26.800
6.700	5.091	1242.854	29.115	51.514	1.000	13.999	316.044	4.000	27.196
6.800	5.290	1222.761	29.115	51.514	1.000	14.085	316.036	4.000	28.386
6.900	5.482	1207.022	29.115	51.513	1.000	14.873	315.980	4.000	29.585
7.000	5.700	1234.342	29.115	51.514	1.000	15.883	315.910	4.000	30.390
7.100	5.923	1288.950	29.115	51.514	1.000	16.750	315.847	4.000	31.960
7.200	6.161	1331.063	29.115	51.514	1.000	18.015	315.774	4.000	32.797
7.300	6.406	1372.533	29.115	51.513	1.000	18.739	315.727	4.000	33.995
7.400	6.638	1380.486	29.115	51.513	1.000	19.869	315.638	4.000	34.391
7.500	6.888	1413.234	29.115	51.513	1.000	20.779	315.594	4.000	34.798
7.600	7.153	1440.819	29.115	51.513	1.000	21.543	315.537	4.000	35.595
7.700	7.404	1464.765	29.115	51.513	1.000	22.665	315.452	4.000	35.998
7.800	7.668	1491.195	29.115	51.512	1.000	23.977	315.356	4.000	37.589
7.900	7.939	1514.709	29.115	51.512	1.000	25.230	315.289	4.000	38.394
8.000	8.207	1553.759	29.115	51.512	1.000	26.565	315.201	4.000	38.797
8.100	8.467	1599.325	29.115	51.512	1.000	27.394	315.129	4.000	39.593
8.200	8.751	1618.622	29.115	51.512	1.000	28.632	315.052	4.000	40.789
8.300	9.043	1660.932	29.115	51.511	1.000	30.249	314.941	4.000	41.196
8.400	9.335	1685.091	29.115	51.511	1.000	31.660	314.839	4.000	42.388
8.500	9.626	1697.656	29.115	51.511	1.000	33.336	314.727	4.000	43.984
8.600	9.959	1747.054	29.115	51.510	1.000	35.475	314.572	4.000	45.979
8.700	10.259	1832.742	29.115	51.509	1.000	37.388	314.464	4.000	46.000
8.800	10.588	1865.521	29.115	51.509	1.000	38.631	314.374	4.000	46.395
8.900	10.908	1856.094	29.115	51.510	1.000	39.447	314.318	4.000	46.005
9.000	11.223	1860.193	29.115	51.510	1.000	39.933	314.290	4.000	46.000
9.100	11.521	1861.502	29.115	51.510	1.000	40.480	314.249	4.000	45.610
9.200	11.831	1823.994	29.115	51.509	1.000	40.917	314.209	4.000	45.600
9.300	12.152	1780.772	29.114	51.508	1.000	41.399	314.170	4.000	45.202
9.400	12.448	1769.585	29.115	51.508	1.000	42.027	314.097	4.000	45.598
9.500	12.750	1770.287	29.115	51.508	1.000	42.838	314.037	4.000	45.600
9.600	13.044	1748.169	29.114	51.507	1.000	43.828	313.963	4.000	45.600
9.700	13.335	1757.122	29.115	51.507	1.000	44.430	313.904	4.000	45.600
9.800	13.629	1780.054	29.114	51.508	1.000	45.708	313.845	4.000	45.600
9.900	13.919	1762.045	29.114	51.506	1.000	46.143	313.775	4.000	45.600
10.000	14.234	1739.344	29.114	51.505	1.000	46.714	313.701	4.000	45.600
10.100	14.514	1746.963	29.114	51.505	1.000	47.560	313.639	4.000	45.600
10.200	14.797	1732.426	29.114	51.506	1.000	48.753	313.588	4.000	45.600
10.300	15.091	1727.235	29.114	51.505	1.000	49.081	313.518	4.000	45.600
10.400	15.381	1748.555	29.114	51.505	1.000	50.029	313.455	4.000	45.600
10.500	15.672	1732.264	29.114	51.505	1.000	50.841	313.396	4.000	45.600
10.600	15.964	1713.135	29.114	51.505	1.000	51.765	313.322	4.000	45.600
10.700	16.259	1718.787	29.114	51.503	1.000	52.405	313.255	4.000	45.600
10.800	16.547	1706.088	29.114	51.501	1.000	53.230	313.194	4.000	45.600
10.900	16.843	1721.144	29.114	51.501	1.000	53.820	313.142	4.000	45.600
11.000	17.134	1723.953	29.114	51.502	1.000	54.366	313.080	4.000	45.600
11.100	17.426	1688.383	29.114	51.501	1.000	55.092	313.019	4.000	45.600
11.200	17.708	1683.048	29.114	51.500	1.000	55.703	312.970	4.000	45.201
11.300	17.967	1671.719	29.114	51.501	1.000	56.406	312.908	4.000	45.598
11.400	18.252	1687.321	29.114	51.500	1.000	57.125	312.842	4.000	45.202
11.500	18.546	1693.346	29.114	51.500	1.000	57.783	312.784	4.000	45.598
11.600	18.819	1669.155	29.114	51.500	1.000	58.649	312.722	4.000	45.600
11.700	19.085	1666.007	29.114	51.499	1.000	59.247	312.657	4.000	45.600
11.800	19.370	1660.822	29.114	51.499	1.000	59.998	312.609	4.000	45.600
11.900	19.663	1685.987	29.114	51.499	1.000	60.766	312.548	4.000	45.600
12.000	19.923	1671.078	29.114	51.498	1.000	61.533	312.470	4.000	45.997
12.100	20.196	1652.404	29.114	51.498	1.000	62.377	312.409	4.000	46.000
12.200	20.486	1649.953	29.114	51.497	1.000	63.060	312.361	4.000	46.000
12.300	20.743	1667.715	29.114	51.496	1.000	63.641	312.303	4.000	46.000
12.400	21.025	1670.937	29.114	51.494	1.000	64.563	312.240	4.000	46.396
12.500	21.322	1649.192	29.114	51.495	1.000	65.623	312.141	4.000	46.796
12.600	21.579	1654.313	29.114	51.495	1.000	67.060	312.049	4.000	47.193
12.700	21.848	1685.086	29.114	51.495	1.000	68.052	311.977	4.000	47.596
12.800	22.146	1703.261	29.114	51.493	1.000	69.259	311.879	4.000	47.600
12.900	22.441	1684.285	29.114	51.493	1.000	70.335	311.800	4.000	47.995
13.000	22.716	1683.406	29.114	51.491	1.000	71.359	311.714	4.000	48.000
13.100	22.985	1717.326	29.114	51.491	1.000	72.396	311.636	4.000	48.000
13.200	23.267	1718.268	29.114	51.491	1.000	73.155	311.585	4.000	48.000
13.300	23.561	1697.414	29.114	51.491	1.000	73.797	311.522	4.000	48.000
13.400	23.852	1693.210	29.114	51.490	1.000	74.526	311.455	4.000	48.398
13.500	24.110	1720.259	29.114	51.491	1.000	75.346	311.382	4.000	48.400
13.600	24.387	1704.998	29.114	51.490	1.000	76.100	311.312	4.000	48.400
13.700	24.677	1683.817	29.114	51.490	1.000	76.649	311.270	4.000	48.007
13.800	24.939	1692.871	29.114	51.491	1.000	76.873	311.238	4.000	48.000
13.900	25.216	1696.462	29.114	51.491	1.000	77.169	311.193	4.000	48.000
14.000	25.475	1661.948	29.113	51.490	1.000	77.499	311.140	4.000	47.603
14.100	25.750	1641.478	29.113	51.489	1.000	77.702	311.125	4.000	47.600
14.200	26.032	1662.445	29.113	51.490	1.000	78.227	311.077	4.000	47.600
14.300	26.301	1640.743	29.113	51.488	1.000	78.871	311.012	4.000	47.600
14.400	26.573	1618.973	29.113	51.488	1.000	79.752	310.928	4.000	47.996
14.500	26.842	1647.502	29.113	51.488	1.000	80.583	310.860	4.000	48.000
14.600	27.094	1644.520	29.113	51.489	1.000	81.230	310.804	4.000	48.396
14.700	27.362	1619.783	29.113	51.489	1.000	81.856	310.750	4.000	48.400
14.800	27.622	1630.330	29.113	51.487	1.000	80.531	310.780	4.000	48.400
14.900	27.880	1604.771	29.113	51.485	1.000	81.110	310.717	4.000	48.795
15.000	28.145	1557.326	29.113	51.484	1.000	80.143	310.725	4.000	49.195
15.100	28.397	1566.543	29.113	51.484	1.000	82.302	310.592	4.000	49.598
15.200	28.639	1583.082	29.113	51.484	1.000	82.662	310.528	4.000	49.600
15.300	28.900	1563.426	29.113	51.484	1.000	82.783	310.501	4.000	49.991
15.400	29.159	1564.513	29.113	51.484	1.000	81.999	310.525	4.000	50.398
15.500	29.404	1556.260	29.113	51.483	1.000	84.116	310.384	4.000	50.798
15.600	29.657	1545.829	29.113	51.481	1.000	84.596	310.295	4.000	51.198
15.700	29.908	1584.175	29.113	51.480	1.000	87.070	310.180	4.000	51.200
15.800	30.163	1600.066	29.113	51.480	1.000	88.115	310.076	4.000	52.392
15.900	30.430	1585.081	29.113	51.480	1.000	89.523	309.949	4.000	53.592
16.000	30.686	1619.534	29.113	51.480	1.000	93.184	309.711	4.000	54.791
16.100	30.960	1665.535	29.113	51.480	1.000	96.317	309.510	3.514	55.189
16.200	31.250	1710.483	29.113	51.479	1.000	102.232	309.226	3.500	55.589
16.300	31.541	1770.662	29.113	51.479	1.000	99.125	309.297	3.500	56.387
16.400	31.807	1732.848	29.112	51.478	1.000	96.203	309.422	3.500	56.400
16.500	32.078	1690.752	29.113	51.478	1.000	100.080	309.157	3.500	56.400
16.600	32.359	1712.616	29.113	51.478	1.000	99.181	309.184	3.500	56.400
16.700	32.624	1676.795	29.113	51.478	1.000	99.056	309.159	3.500	56.796
16.800	32.891	1670.624	29.113	51.478	1.000	101.657	309.026	3.500	57.591
16.900	33.160	1683.223	29.113	51.478	1.000	99.371	309.060	3.500	57.995
17.000	33.415	1656.626	29.113	51.478	1.000	101.433	308.936	3.500	58.000
17.100	33.677	1667.699	29.113	51.477	1.000	98.800	309.044	3.500	58.000
17.200	33.942	1651.356	29.113	51.477	1.000	100.612	308.971	3.500	58.000
17.300	34.192	1620.593	29.113	51.476	1.000	102.924	308.819	3.500	58.000
17.400	34.437	1629.651	29.113	51.476	1.000	99.543	308.982	3.500	58.000
17.500	34.699	1599.589	29.113	51.475	1.000	99.399	308.923	3.500	58.000
17.600	34.954	1596.830	29.113	51.475	1.000	99.516	308.897	3.500	58.000
17.700	35.197	1571.546	29.113	51.476	1.000	98.759	308.899	3.500	58.000
17.800	35.433	1535.865	29.113	51.477	1.000	97.137	308.975	3.500	57.602
17.900	35.665	1536.185	29.113	51.477	1.000	101.563	308.771	3.500	57.600
18.000	35.917	1514.529	29.113	51.478	1.000	95.332	309.017	3.500	57.989
18.100	36.145	1501.334	29.113	51.477	1.000	95.205	308.996	3.500	58.000
18.200	36.363	1469.753	29.113	51.477	1.000	96.494	308.903	3.500	58.000
18.300	36.608	1454.876	29.112	51.478	1.000	99.502	308.731	3.500	57.604
18.400	36.825	1465.213	29.112	51.478	1.000	95.083	308.978	3.500	57.996
18.500	37.042	1431.600	29.112	51.478	1.000	94.839	308.942	3.500	58.000
18.600	37.260	1411.408	29.112	51.480	1.000	99.804	308.677	3.500	58.000
18.700	37.485	1413.057	29.112	51.480	1.000	99.169	308.717	3.500	58.000
18.800	37.719	1446.654	29.112	51.479	1.000	102.579	308.560	3.500	58.000
18.900	37.938	1476.219	29.112	51.479	1.000	103.641	308.496	3.500	59.186
19.000	38.175	1493.445	29.112	51.480	1.000	106.190	308.298	3.500	61.175
19.100	38.429	1521.155	29.112	51.481	1.000	110.753	307.998	3.500	64.334
19.200	38.680	1573.030	29.112	51.483	1.000	118.205	307.542	3.500	66.791
19.300	38.946	1663.294	29.112	51.484	1.000	122.895	307.243	3.500	68.394
19.400	39.240	1727.310	29.112	51.485	1.000	126.474	307.014	3.500	68.792
19.500	39.506	1768.218	29.112	51.485	1.000	126.969	306.946	3.500	69.198
19.600	39.774	1768.083	29.112	51.485	1.000	127.324	306.888	3.500	69.598
19.700	40.068	1762.825	29.112	51.484	1.000	128.331	306.790	3.500	69.600
19.800	40.336	1758.104	29.112	51.485	1.000	128.724	306.733	3.500	69.998
19.900	40.604	1754.510	29.112	51.487	1.000	129.809	306.628	3.500	71.187
20.000	40.886	1755.726	29.112	51.489	1.000	133.653	306.351	3.500	72.370
20.100	41.159	1779.910	29.112	51.491	1.000	136.081	306.184	3.500	72.796
20.200	41.433	1816.530	29.112	51.491	1.000	137.073	306.109	3.500	73.197
20.300	41.721	1817.773	29.112	51.491	1.000	137.695	306.022	3.500	73.596
20.400	42.015	1816.589	29.112	51.491	1.000	139.453	305.868	3.500	74.789
20.500	42.299	1821.702	29.112	51.492	1.000	142.054	305.695	3.500	74.800
20.600	42.581	1840.926	29.112	51.495	1.000	142.460	305.624	3.500	74.800
20.700	42.861	1838.857	29.112	51.497	1.000	142.011	305.602	3.500	74.800
20.800	43.141	1820.480	29.112	51.499	1.000	141.634	305.595	3.500	74.800
20.900	43.423	1801.805	29.112	51.499	1.000	141.732	305.546	3.500	74.800
21.000	43.686	1791.946	29.112	51.499	1.000	141.863	305.506	3.500	74.800
21.100	43.953	1777.200	29.112	51.498	1.000	142.069	305.446	3.500	74.800
21.200	44.239	1766.343	29.112	51.499	1.000	142.217	305.417	3.500	74.800
21.300	44.514	1754.502	29.112	51.501	1.000	142.327	305.370	3.500	75.189
21.400	44.779	1747.614	29.112	51.504	1.000	142.686	305.314	3.500	75.200
21.500	45.047	1736.459	29.112	51.506	1.000	143.114	305.244	3.500	75.200
21.600	45.301	1732.482	29.112	51.506	1.000	143.680	305.159	3.500	75.200
21.700	45.560	1726.266	29.112	51.506	1.000	144.606	305.078	3.500	75.598
21.800	45.829	1729.949	29.112	51.507	1.000	145.390	305.008	3.500	75.997
21.900	46.079	1721.180	29.112	51.507	1.000	145.558	304.948	3.500	76.397
22.000	46.336	1718.041	29.112	51.510	1.000	145.597	304.909	3.500	76.400
22.100	46.609	1701.941	29.112	51.514	1.000	145.541	304.867	3.500	76.797
22.200	46.861	1699.655	29.112	51.517	1.000	145.520	304.840	3.500	77.197
22.300	47.102	1684.794	29.112	51.518	1.000	145.658	304.804	3.500	77.200
22.400	47.357	1678.584	29.112	51.517	1.000	145.724	304.761	3.500	77.200
22.500	47.620	1665.239	29.112	51.517	1.000	145.932	304.696	3.014	77.200
22.600	47.861	1659.203	29.112	51.518	1.000	146.006	304.657	3.000	77.200
22.700	48.105	1654.262	29.112	51.519	1.000	146.216	304.623	3.000	77.200
22.800	48.337	1641.437	29.112	51.521	1.000	146.082	304.587	3.000	77.595
22.900	48.572	1637.262	29.113	51.524	1.000	145.529	304.574	3.000	77.208
23.000	48.826	1613.321	29.112	51.525	1.000	137.434	304.975	3.000	77.200
23.100	49.044	1567.407	29.112	51.526	1.000	136.711	304.988	3.000	77.599
23.200	49.256	1501.319	29.113	51.525	1.000	136.451	305.026	3.000	77.600
23.300	49.470	1488.839	29.113	51.527	1.000	136.580	304.987	3.000	78.766
23.400	49.693	1481.249	29.112	51.527	1.000	136.600	304.956	3.000	80.367
23.500	49.896	1475.838	29.113	51.530	1.000	136.759	304.921	3.000	82.390
23.600	50.119	1474.795	29.112	51.533	1.000	136.744	304.875	3.000	82.798
23.700	50.340	1459.961	29.113	51.535	1.000	136.799	304.848	3.000	82.402
23.800	50.532	1459.999	29.113	51.536	1.000	137.017	304.809	3.000	82.400
23.900	50.742	1449.333	29.112	51.536	1.000	137.052	304.781	3.000	82.003
24.000	50.972	1447.011	29.112	51.535	1.000	137.042	304.731	3.000	81.206
24.100	51.166	1441.878	29.113	51.536	1.000	137.219	304.693	3.000	79.259
24.200	51.362	1430.380	29.113	51.536	1.000	137.196	304.677	3.000	78.407
24.300	51.571	1435.419	29.112	51.540	1.000	137.349	304.638	3.000	78.003
24.400	51.792	1423.047	29.112	51.543	1.000	137.367	304.599	3.000	77.604
24.500	51.987	1417.834	29.112	51.544	1.000	137.414	304.571	3.000	76.047
24.600	52.173	1412.646	29.112	51.543	1.000	137.536	304.530	3.000	73.231
24.700	52.384	1401.902	29.112	51.543	1.000	137.339	304.510	3.000	70.826
24.800	52.578	1402.422	29.112	51.544	1.000	137.009	304.498	3.000	68.427
24.900	52.775	1383.205	29.112	51.544	1.000	131.964	304.739	3.000	65.633
25.000	52.952	1343.464	29.112	51.545	1.000	125.639	305.057	3.000	63.625
25.100	53.108	1279.131	29.112	51.547	1.000	120.739	305.329	3.000	62.031
25.200	53.274	1205.219	29.112	51.547	1.000	115.098	305.652	3.000	60.407
25.300	53.410	1155.522	29.112	51.547	1.000	112.359	305.816	3.000	60.400
25.400	53.538	1107.419	29.112	51.548	1.000	112.163	305.811	3.000	60.795
25.500	53.684	1086.386	29.112	51.548	1.000	113.454	305.724	3.000	61.583
25.600	53.839	1102.638	29.112	51.548	1.000	114.293	305.661	3.000	61.205
25.700	53.994	1103.282	29.112	51.549	1.000	113.961	305.670	3.000	60.805
25.800	54.123	1102.830	29.112	51.550	1.000	111.213	305.781	3.000	58.018
25.900	54.261	1081.341	29.112	51.550	1.000	103.851	306.183	3.000	54.427
26.000	54.377	1012.160	29.112	51.550	1.000	93.849	306.712	3.000	49.736
26.100	54.466	920.709	29.112	51.550	1.000	81.358	307.431	3.000	44.448
26.200	54.530	787.704	29.112	51.550	1.000	68.292	308.221	3.000	40.832
26.300	54.584	641.758	29.112	51.551	1.000	59.220	308.776	3.000	37.652
26.400	54.616	523.758	29.112	51.550	1.000	50.748	309.309	3.000	35.223
26.500	54.623	429.697	29.112	51.549	1.000	44.493	309.700	3.000	34.408
26.600	54.637	350.777	29.112	51.548	1.000	43.200	309.833	3.000	34.796
26.700	54.649	316.520	29.112	51.548	1.000	43.919	309.817	3.000	34.800
26.800	54.665	317.227	29.112	51.548	1.000	44.370	309.809	3.000	35.579
26.900	54.665	324.341	29.112	51.548	1.000	45.185	309.783	3.000	35.215
27.000	54.665	327.555	29.112	51.548	1.000	45.087	309.783	3.000	35.200
27.100	54.681	329.278	29.112	51.546	1.000	45.173	309.796	3.000	35.200
27.200	54.714	330.020	29.112	51.541	1.000	44.699	309.833	3.000	35.200
27.300	54.715	327.623	29.112	51.538	1.000	45.016	309.821	3.000	35.200
27.400	54.715	324.016	29.112	51.538	1.000	45.548	309.794	3.000	36.765
27.500	54.730	336.653	29.112	51.537	1.000	50.304	309.497	3.000	39.187
27.600	54.771	372.312	29.112	51.537	1.000	56.417	309.168	3.000	40.791
27.700	54.800	432.565	29.112	51.537	1.000	59.657	308.990	3.000	40.800
27.800	54.843	491.907	29.112	51.535	1.000	59.680	308.983	3.000	39.617
27.900	54.878	489.324	29.112	51.530	1.000	55.724	309.170	3.000	37.218
28.000	54.917	462.089	29.112	51.524	1.000	50.548	309.484	3.000	36.420
28.100	54.939	419.917	29.112	51.523	1.000	47.263	309.676	3.000	35.219
28.200	54.960	352.575	29.112	51.522	1.000	45.132	309.826	3.000	35.200
28.300	54.960	340.372	29.112	51.522	1.000	45.154	309.840	3.000	35.596
28.400	54.961	333.769	29.112	51.522	1.000	45.658	309.818	3.000	35.600
28.500	54.975	324.335	29.112	51.521	1.000	45.411	309.830	3.000	35.204
28.600	55.009	340.528	29.112	51.513	1.000	45.121	309.843	3.000	35.200
28.700	55.009	326.001	29.111	51.503	1.000	44.319	309.904	3.000	34.423
28.800	55.009	319.343	29.111	51.498	1.000	42.094	310.030	3.000	34.005
28.900	55.009	315.401	29.111	51.496	1.000	41.375	310.092	3.000	34.000
29.000	55.014	280.633	29.111	51.495	1.000	41.827	310.062	3.000	34.000
29.100	55.030	287.647	29.111	51.496	1.000	42.021	310.050	3.000	34.388
29.200	55.041	299.615	29.111	51.494	1.000	42.409	310.038	3.000	34.400
29.300	55.059	289.193	29.111	51.482	1.000	42.924	310.012	3.000	34.400
29.400	55.059	306.848	29.111	51.466	1.000	42.903	310.008	3.000	34.400
29.500	55.058	304.049	29.111	51.460	1.000	42.976	310.016	3.000	34.400
29.600	55.064	297.570	29.111	51.458	1.000	42.971	310.008	3.000	34.400
29.700	55.079	312.376	29.111	51.458	1.000	42.882	310.017	3.000	34.400
29.800	55.089	299.337	29.111	51.457	1.000	42.602	310.038	3.000	34.003
29.900	55.107	299.712	29.111	51.456	1.000	41.481	310.111	3.000	33.603
30.000	55.107	301.145	29.111	51.448	1.000	40.070	310.176	3.000	33.203
30.100	55.106	266.661	29.111	51.428	1.000	39.544	310.210	3.000	33.200
30.200	55.106	256.943	29.111	51.414	1.000	39.660	310.210	3.000	33.200
30.300	55.106	279.970	29.111	51.408	1.000	39.825	310.209	3.000	33.596
30.400	55.106	269.610	29.111	51.406	1.000	40.059	310.191	3.000	33.600
30.500	55.106	256.532	29.111	51.406	1.000	39.943	310.206	3.000	33.600
30.600	55.106	284.244	29.111	51.405	1.000	39.860	310.210	3.000	33.600
30.700	55.106	265.391	29.111	51.395	1.000	40.016	310.202	3.000	33.600
30.800	55.106	267.973	29.111	51.367	1.000	40.198	310.198	3.000	33.600
30.900	55.106	280.899	29.111	51.347	1.000	40.104	310.190	3.000	33.600
31.000	55.107	265.059	29.111	51.340	1.000	40.103	310.190	3.000	33.600
31.100	55.106	278.129	29.111	51.338	1.000	40.475	310.183	3.000	33.600
31.200	55.106	276.071	29.111	51.338	1.000	40.392	310.179	3.000	33.600
31.300	55.106	269.596	29.111	51.336	1.000	40.604	310.171	3.000	33.600
31.400	55.119	286.784	29.111	51.326	1.000	40.375	310.178	3.000	33.600
31.500	55.114	269.887	29.111	51.294	1.000	40.644	310.146	3.000	33.600
31.600	55.141	275.800	29.111	51.269	1.000	40.861	310.089	3.000	33.600
31.700	55.156	286.731	29.111	51.260	1.000	40.887	310.077	3.000	33.600
31.800	55.158	264.475	29.111	51.255	1.000	40.900	310.061	3.000	33.600
31.900	55.157	283.294	29.111	51.255	1.000	40.566	310.155	3.000	33.600
32.000	55.157	281.812	29.111	51.254	1.000	40.660	310.152	3.000	33.600
32.100	55.157	267.395	29.111	51.239	1.000	40.549	310.152	3.000	33.600
32.200	55.156	297.374	29.111	51.190	1.000	40.525	310.171	3.000	33.600
32.300	55.158	267.833	29.110	51.167	1.000	40.305	310.171	3.000	33.600
32.400	55.156	261.261	29.111	51.159	1.000	40.174	310.172	3.000	33.600
32.500	55.158	291.544	29.111	51.157	1.000	39.595	310.205	3.000	32.808
32.600	55.158	251.634	29.110	51.155	1.000	37.824	310.315	3.000	32.415
32.700	55.158	235.777	29.111	51.155	1.000	37.314	310.345	3.000	32.400
32.800	55.157	262.203	29.111	51.148	1.000	37.398	310.334	2.506	32.400
32.900	55.157	228.058	29.111	51.097	1.000	37.243	310.346	2.500	32.400
33.000	55.157	235.553	29.111	51.059	1.000	37.190	310.357	2.500	32.400
33.100	55.157	255.471	29.111	51.046	1.000	37.327	310.342	2.500	32.400
33.200	55.156	244.737	29.111	51.041	1.000	37.312	310.346	2.500	32.400
33.300	55.132	261.427	29.111	51.039	1.000	37.234	310.361	2.500	32.400
33.400	55.134	229.644	29.111	51.039	1.000	37.260	310.357	2.500	32.400
33.500	55.127	232.858	29.110	51.034	1.000	37.355	310.342	2.500	32.400
33.600	55.130	261.509	29.110	50.980	1.000	37.296	310.346	2.500	32.400
33.700	55.136	224.051	29.110	50.932	1.000	37.337	310.345	2.500	32.400
33.800	55.106	244.005	29.110	50.916	1.000	37.373	310.330	2.500	32.400
33.900	55.106	264.132	29.110	50.909	1.000	37.440	310.334	2.500	32.797
34.000	55.107	224.667	29.110	50.906	1.000	37.657	310.326	2.500	32.800
34.100	55.106	254.475	29.110	50.906	1.000	37.955	310.288	2.500	32.800
34.200	55.106	263.772	29.110	50.906	1.000	38.278	310.291	2.500	32.800
34.300	55.106	232.576	29.110	50.869	1.000	38.461	310.268	2.500	33.197
34.400	55.106	270.731	29.110	50.801	1.000	38.951	310.241	2.500	33.200
34.500	55.106	269.566	29.110	50.771	1.000	39.085	310.229	2.500	33.200
34.600	55.106	251.612	29.110	50.761	1.000	39.080	310.229	2.500	33.200
34.700	55.106	283.448	29.110	50.758	1.000	38.940	310.233	2.500	33.200
34.800	55.107	257.146	29.110	50.758	1.000	38.945	310.225	2.500	32.806
34.900	55.106	241.266	29.110	50.756	1.000	38.697	310.249	2.500	32.800
35.000	55.107	277.860	29.110	50.725	1.000	38.458	310.249	2.500	32.800
35.100	55.107	254.566	29.110	50.647	1.000	38.206	310.272	2.500	32.800
35.200	55.106	238.272	29.110	50.610	1.000	38.181	310.272	2.500	32.800
35.300	55.106	265.248	29.110	50.596	1.000	38.214	310.276	2.500	32.800
35.400	55.106	256.868	29.110	50.589	1.000	38.235	310.256	2.500	32.800
35.500	55.106	243.944	29.110	50.589	1.000	38.400	310.249	2.500	32.800
35.600	55.106	269.397	29.110	50.590	1.000	38.413	310.249	2.500	33.195
35.700	55.106	255.281	29.110	50.581	1.000	38.505	310.237	2.500	32.805
35.800	55.107	245.840	29.110	50.505	1.000	38.452	310.241	2.500	32.800
35.900	55.106	266.003	29.110	50.442	1.000	38.362	310.249	2.500	32.800
36.000	55.106	251.062	29.110	50.421	1.000	38.333	310.241	2.500	32.800
36.100	55.106	251.796	29.110	50.412	1.000	38.247	310.237	2.500	32.800
36.200	55.106	264.031	29.110	50.409	1.000	38.205	310.249	2.500	32.800
36.300	55.106	244.518	29.110	50.408	1.000	38.317	310.245	2.500	33.193
36.400	55.107	252.104	29.110	50.402	1.000	38.469	310.229	2.500	32.807
36.500	55.106	262.301	29.110	50.324	1.000	38.386	310.241	2.500	32.800
36.600	55.106	244.330	29.110	50.253	1.000	38.363	310.241	2.500	32.800
36.700	55.106	261.340	29.110	50.225	1.000	38.416	310.218	2.500	32.800
36.800	55.106	264.712	29.110	50.216	1.000	38.296	310.221	2.500	32.800
36.900	55.106	245.755	29.110	50.212	1.000	38.411	310.214	2.500	32.800
37.000	55.106	260.315	29.110	50.210	1.000	38.258	310.214	2.500	32.800
37.100	55.106	255.290	29.110	50.209	1.000	38.237	310.221	2.500	32.800
37.200	55.106	241.908	29.110	50.164	1.000	38.276	310.225	2.500	32.800
37.300	55.106	256.803	29.110	50.069	1.000	38.188	310.225	2.500	32.800
37.400	55.106	250.747	29.110	50.022	1.000	38.265	310.218	2.500	32.800
37.500	55.106	249.291	29.110	50.006	1.000	38.406	310.206	2.500	32.800
37.600	55.106	265.544	29.110	49.999	1.000	38.268	310.198	2.500	32.800
37.700	55.106	251.724	29.110	49.999	1.000	38.270	310.206	2.500	32.800
37.800	55.106	258.129	29.110	49.997	1.000	38.243	310.206	2.500	32.800
37.900	55.106	264.922	29.110	49.962	1.000	38.254	310.202	2.500	32.800
38.000	55.106	246.307	29.110	49.858	1.000	38.233	310.187	2.500	32.800
38.100	55.086	253.765	29.110	49.803	1.000	38.200	310.187	2.500	32.800
38.200	55.087	258.681	29.110	49.782	1.000	38.197	310.210	2.500	32.800
38.300	55.104	248.597	29.110	49.775	1.000	38.279	310.198	2.500	32.800
38.400	55.106	259.814	29.110	49.773	1.000	38.433	310.179	2.500	32.800
38.500	55.106	260.135	29.110	49.772	1.000	38.369	310.179	2.500	32.800
38.600	55.106	250.323	29.110	49.760	1.000	38.388	310.171	2.500	32.800
38.700	55.107	259.839	29.110	49.664	1.000	38.391	310.167	2.500	32.800
38.800	55.106	256.392	29.110	49.583	1.000	38.476	310.163	2.500	32.800
38.900	55.106	252.273	29.110	49.551	1.000	38.329	310.171	2.500	32.800
39.000	55.106	265.317	29.110	49.540	1.000	38.407	310.171	2.500	32.800
39.100	55.106	253.536	29.110	49.537	1.000	38.358	310.163	2.500	32.800
39.200	55.086	254.957	29.110	49.534	1.000	38.202	310.171	2.500	32.800
39.300	55.087	264.273	29.110	49.526	1.000	38.218	310.171	2.500	32.800
39.400	55.104	246.911	29.109	49.435	1.000	38.280	310.163	2.500	32.800
39.500	55.086	257.910	29.110	49.345	1.000	38.297	310.156	2.500	32.800
39.600	55.086	261.474	29.110	49.307	1.000	38.377	310.152	2.500	32.800
39.700	55.104	252.909	29.110	49.293	1.000	38.375	310.144	2.500	32.800
39.800	55.086	256.276	29.110	49.288	1.000	38.325	310.144	2.500	32.800
39.900	55.088	238.247	29.110	49.287	1.000	38.243	310.155	2.500	32.800
40.000	55.084	240.109	29.110	49.285	1.000	38.356	310.136	2.500	32.800
40.100	55.103	263.264	29.110	49.236	1.000	38.264	310.140	2.500	32.800
40.200	55.086	257.613	29.110	49.125	1.000	38.347	310.148	2.500	32.800
40.300	55.062	254.135	29.110	49.064	1.000	38.300	310.136	2.500	32.800
40.400	55.079	261.867	29.110	49.041	1.000	38.389	310.129	2.500	32.800
40.500	55.079	253.580	29.110	49.032	1.000	38.415	310.124	2.500	32.800
40.600	55.082	252.589	29.109	49.029	1.000	38.439	310.121	2.500	32.800
40.700	55.087	265.742	29.110	49.028	1.000	38.362	310.121	2.500	32.800
40.800	55.103	250.488	29.110	48.987	1.000	38.213	310.117	2.500	32.800
40.900	55.088	255.199	29.110	48.872	1.000	38.157	310.124	2.500	32.800
41.000	55.087	260.865	29.109	48.805	1.000	38.206	310.121	2.500	32.800
41.100	55.084	249.704	29.110	48.779	1.000	38.208	310.109	2.500	32.800
41.200	55.078	263.155	29.109	48.769	1.000	38.285	310.117	2.500	32.800
41.300	55.063	256.796	29.109	48.765	1.000	38.243	310.105	2.500	32.800
41.400	55.059	247.090	29.109	48.766	1.000	38.190	310.113	2.500	32.800
41.500	55.059	262.966	29.109	48.754	1.000	38.207	310.105	2.500	32.800
41.600	55.058	251.408	29.109	48.652	1.000	38.234	310.097	2.500	32.800
41.700	55.058	251.114	29.109	48.560	1.000	38.239	310.093	2.500	32.800
41.800	55.057	261.360	29.109	48.517	1.000	38.176	310.097	2.500	32.800
41.900	55.059	247.242	29.109	48.502	1.000	38.192	310.093	2.500	32.800
42.000	55.059	255.881	29.109	48.497	1.000	38.262	310.078	2.500	32.800
42.100	55.059	264.194	29.109	48.495	1.000	38.186	310.078	2.500	32.800
42.200	55.059	246.102	29.109	48.488	1.000	38.227	310.089	2.500	32.800
42.300	55.059	257.724	29.109	48.400	1.000	38.145	310.082	2.500	32.800
42.400	55.058	255.920	29.109	48.296	1.000	38.163	310.078	2.500	32.800
42.500	55.059	246.825	29.109	48.248	1.000	38.186	310.074	2.500	32.800
42.600	55.058	267.493	29.109	48.231	1.000	38.371	310.066	2.500	32.800
42.700	55.059	254.893	29.109	48.225	1.000	38.213	310.066	2.500	32.800
42.800	55.059	245.644	29.109	48.223	1.000	38.274	310.059	2.500	32.800
42.900	55.059	265.978	29.109	48.221	1.000	38.321	310.062	2.500	32.800
43.000	55.059	252.687	29.109	48.170	1.000	38.365	310.055	2.500	32.800
43.100	55.060	256.006	29.109	48.066	1.000	38.364	310.028	2.500	32.800
43.200	55.059	264.170	29.109	47.989	1.000	38.439	310.042	2.500	32.800
43.300	55.059	246.099	29.109	47.962	1.000	38.360	310.043	2.500	32.800
43.400	55.060	259.893	29.109	47.952	1.000	38.230	310.039	2.500	32.800
43.500	55.060	264.638	29.109	47.950	1.000	38.393	310.031	2.500	32.800
43.600	55.059	245.740	29.109	47.947	1.000	38.371	310.031	2.500	32.800
43.700	55.059	266.092	29.109	47.916	1.000	38.398	310.024	2.500	33.198
43.800	55.060	260.822	29.109	47.805	1.000	38.593	310.008	2.500	32.803
43.900	55.059	251.713	29.109	47.724	1.000	38.447	310.008	2.500	32.800
44.000	55.059	268.390	29.109	47.689	1.000	38.336	310.004	2.500	32.800
44.100	55.059	251.375	29.109	47.677	1.000	38.234	310.019	2.500	32.800
44.200	55.059	253.708	29.109	47.674	1.000	38.423	310.004	2.500	32.800
44.300	55.058	269.423	29.109	47.672	1.000	38.296	310.012	2.500	32.800
44.400	55.058	248.178	29.109	47.664	1.000	38.223	310.016	2.500	32.800
44.500	55.059	255.990	29.109	47.578	1.000	38.306	309.997	2.500	32.800
44.600	55.059	263.186	29.109	47.473	1.000	38.271	310.004	2.500	32.800
44.700	55.058	243.523	29.109	47.422	1.000	38.288	310.004	2.500	32.800
44.800	55.058	261.886	29.109	47.404	1.000	38.328	310.000	2.500	32.800
44.900	55.059	262.250	29.109	47.397	1.000	38.181	309.989	2.500	32.800
45.000	55.058	244.601	29.109	47.395	1.000	38.223	309.992	2.500	32.800
45.100	55.059	262.617	29.109	47.392	1.000	38.256	309.974	2.500	32.800
45.200	55.059	253.224	29.109	47.316	1.000	38.149	310.003	2.500	32.800
45.300	55.059	250.112	29.109	47.209	1.000	38.171	309.993	2.500	32.800
45.400	55.059	266.614	29.109	47.149	1.000	38.096	309.978	2.500	32.800
45.500	55.059	246.925	29.109	47.128	1.000	38.179	309.984	2.500	32.800
45.600	55.059	253.806	29.109	47.120	1.000	38.109	309.977	2.500	32.800
45.700	55.058	268.818	29.109	47.118	1.000	38.168	309.969	2.500	32.800
45.800	55.058	243.020	29.109	47.117	1.000	38.111	309.977	2.500	32.800
45.900	55.059	257.793	29.108	47.084	1.000	38.268	309.958	2.500	32.800
46.000	55.059	265.068	29.108	46.975	1.000	38.265	309.950	2.500	32.800
46.100	55.059	247.347	29.108	46.895	1.000	38.178	309.946	2.500	32.800
46.200	55.059	265.262	29.108	46.863	1.000	38.059	309.964	2.500	32.800
46.300	55.059	256.692	29.108	46.853	1.000	38.166	309.954	2.500	32.800
46.400	55.058	246.817	29.108	46.848	1.000	38.158	309.950	2.500	32.800
46.500	55.059	266.516	29.108	46.846	1.000	38.151	309.946	2.500	32.800
46.600	55.060	250.211	29.108	46.819	1.000	38.276	309.935	2.500	32.800
46.700	55.058	252.442	29.109	46.718	1.000	38.191	309.934	2.500	32.800
46.800	55.059	267.049	29.109	46.634	1.000	38.210	309.934	2.500	32.800
46.900	55.060	249.309	29.109	46.598	1.000	38.198	309.927	2.500	32.800
47.000	55.059	257.536	29.109	46.585	1.000	38.210	309.919	2.500	32.800
47.100	55.060	262.400	29.109	46.581	1.000	38.142	309.919	2.500	32.800
47.200	55.058	242.779	29.109	46.579	1.000	38.176	309.937	2.500	32.800
47.300	55.059	262.728	29.109	46.574	1.000	38.198	309.923	2.500	32.800
47.400	55.058	256.958	29.109	46.497	1.000	38.101	309.926	2.500	32.800
47.500	55.058	242.905	29.109	46.398	1.000	38.128	309.919	2.500	32.800
47.600	55.059	263.959	29.110	46.345	1.000	38.331	309.904	2.500	32.800
47.700	55.045	251.923	29.110	46.327	1.000	38.039	309.914	2.500	32.800
47.800	55.053	246.062	29.110	46.321	1.000	38.187	309.911	2.500	32.800
47.900	55.043	264.733	29.110	46.318	1.000	38.185	309.900	2.500	32.800
48.000	55.051	248.765	29.110	46.314	1.000	38.160	309.892	2.500	32.800
48.100	55.059	254.588	29.110	46.248	1.000	38.059	309.899	2.500	32.800
48.200	55.058	264.004	29.109	46.149	1.000	38.202	309.892	2.500	32.800
48.300	55.059	245.275	29.109	46.090	1.000	38.243	309.892	2.500	32.800
48.400	55.060	260.210	29.109	46.068	1.000	38.183	309.884	2.500	32.800
48.500	55.059	263.983	29.110	46.062	1.000	38.166	309.880	2.500	32.800
48.600	55.059	248.598	29.110	46.059	1.000	38.129	309.873	2.500	32.800
48.700	55.059	264.522	29.109	46.057	1.000	38.102	309.872	2.500	32.800
48.800	55.058	253.763	29.110	46.025	1.000	38.011	309.872	2.500	32.800
48.900	55.059	246.373	29.110	45.928	1.000	38.055	309.872	2.500	32.800
49.000	55.043	262.132	29.110	45.854	1.000	37.932	309.876	2.500	32.800
49.100	55.037	247.521	29.110	45.823	1.000	37.793	309.876	2.500	32.800
49.200	55.051	250.815	29.110	45.812	1.000	37.917	309.876	2.500	32.800
49.300	55.043	261.294	29.110	45.807	1.000	37.827	309.876	2.500	32.800
49.400	55.038	246.259	29.110	45.806	1.000	37.832	309.869	2.500	32.800
49.500	55.051	255.121	29.110	45.784	1.000	37.778	309.868	2.500	32.800
49.600	55.042	258.195	29.110	45.695	1.000	37.800	309.861	2.500	32.800
49.700	55.037	243.605	29.110	45.613	1.000	37.822	309.864	2.500	32.800
49.800	55.037	256.536	29.110	45.577	1.000	37.775	309.861	2.500	32.800
49.900	55.034	253.291	29.110	45.564	1.000	37.846	309.860	2.500	32.800
50.000	55.031	248.648	29.110	45.559	1.000	37.668	309.850	2.500	32.800
50.100	55.017	260.426	29.110	45.558	1.000	37.638	309.849	2.500	32.800
50.200	55.024	247.575	29.110	45.554	1.000	37.670	309.860	2.500	32.800
50.300	55.031	249.145	29.110	45.490	1.000	37.643	309.853	2.500	32.404
50.400	55.017	257.356	29.110	45.399	1.000	37.630	309.856	2.500	32.400
50.500	55.009	244.562	29.110	45.348	1.000	37.618	309.846	2.500	32.796
50.600	55.009	252.739	29.110	45.329	1.000	37.641	309.834	2.500	32.403
50.700	55.009	256.170	29.110	45.323	1.000	37.741	309.830	2.500	32.796
50.800	55.009	248.539	29.110	45.321	1.000	37.794	309.822	2.500	32.800
50.900	55.009	257.237	29.110	45.316	1.000	37.838	309.822	2.500	32.800
51.000	55.009	253.849	29.110	45.260	1.000	37.790	309.822	2.500	32.800
51.100	55.009	252.306	29.110	45.171	1.000	37.825	309.814	2.500	32.800
51.200	55.009	257.991	29.110	45.116	1.000	37.816	309.818	2.500	32.800
51.300	55.009	249.250	29.110	45.096	1.000	37.789	309.818	2.500	32.800
51.400	55.009	251.189	29.110	45.088	1.000	37.987	309.796	2.500	32.800
51.500	55.009	257.737	29.110	45.086	1.000	38.011	309.784	2.500	32.800
51.600	55.009	253.732	29.110	45.084	1.000	38.149	309.772	2.500	32.800
51.700	55.009	258.946	29.111	45.059	1.000	38.139	309.771	2.500	32.800
51.800	55.009	258.415	29.111	44.977	1.000	38.093	309.771	2.500	32.800
51.900	55.009	255.286	29.111	44.903	1.000	37.986	309.775	2.500	32.800
52.000	55.009	258.667	29.111	44.874	1.000	38.117	309.761	2.500	32.800
52.100	55.009	257.150	29.111	44.863	1.000	37.901	309.760	2.500	32.800
52.200	55.009	256.940	29.111	44.859	1.000	37.698	309.781	2.500	32.405
52.300	55.009	255.534	29.111	44.858	1.000	37.643	309.783	2.500	32.796
52.400	55.009	249.679	29.111	44.840	1.000	37.732	309.776	2.500	32.403
52.500	55.009	254.402	29.112	44.767	1.000	37.661	309.775	2.500	32.796
52.600	55.009	253.700	29.112	44.689	1.000	37.771	309.775	2.004	32.800
52.700	55.009	250.943	29.112	44.654	1.000	37.634	309.772	2.000	32.405
52.800	55.009	251.393	29.112	44.642	1.000	37.787	309.753	2.000	32.795
52.900	55.009	249.224	29.112	44.638	1.000	37.786	309.755	2.000	32.800
53.000	55.009	253.861	29.112	44.637	1.000	37.792	309.745	2.000	32.800
53.100	55.009	252.131	29.112	44.634	1.000	37.769	309.751	2.000	32.800
53.200	55.009	251.406	29.112	44.588	1.000	37.799	309.745	2.000	32.402
53.300	55.009	257.367	29.112	44.506	1.000	37.771	309.748	2.000	32.798
53.400	55.009	251.203	29.112	44.450	1.000	37.748	309.737	2.000	32.800
53.500	55.009	250.477	29.112	44.430	1.000	37.783	309.736	2.000	32.402
53.600	55.009	255.128	29.112	44.424	1.000	37.639	309.736	2.000	32.400
53.700	55.010	249.882	29.112	44.422	1.000	37.647	309.736	2.000	32.400
53.800	55.010	254.060	29.112	44.419	1.000	37.651	309.726	2.000	32.797
53.900	55.009	252.828	29.112	44.375	1.000	37.799	309.717	2.000	32.800
54.000	55.009	248.125	29.113	44.296	1.000	37.790	309.710	2.000	32.800
54.100	55.009	257.025	29.113	44.243	1.000	37.698	309.706	2.000	32.800
54.200	55.009	249.101	29.113	44.223	1.000	37.789	309.709	2.000	32.800
54.300	55.009	249.162	29.113	44.217	1.000	37.842	309.709	2.000	32.800
54.400	54.999	259.797	29.113	44.215	1.000	37.758	309.709	2.000	32.800
54.500	55.000	246.637	29.113	44.213	1.000	37.699	309.706	2.000	32.800
54.600	54.997	251.409	29.113	44.195	1.000	37.804	309.694	2.000	32.800
54.700	54.988	257.237	29.114	44.129	1.000	37.768	309.697	2.000	32.800
54.800	55.000	245.393	29.114	44.058	1.000	37.725	309.690	2.000	32.405
54.900	54.998	257.636	29.114	44.028	1.000	37.625	309.700	2.000	32.795
55.000	54.987	255.029	29.114	44.016	1.000	37.784	309.680	2.000	32.800
55.100	54.999	247.227	29.114	44.012	1.000	37.783	309.671	2.000	32.800
55.200	55.009	263.100	29.114	44.011	1.000	37.805	309.677	2.000	32.800
55.300	54.998	249.725	29.115	43.997	1.000	37.735	309.678	2.000	32.800
55.400	54.974	248.075	29.115	43.935	1.000	37.743	309.667	2.000	32.800
55.500	54.973	259.203	29.115	43.864	1.000	37.771	309.663	2.000	32.800
55.600	54.983	246.269	29.115	43.832	1.000	37.723	309.666	2.000	32.800
55.700	54.972	253.332	29.116	43.820	1.000	37.762	309.659	2.000	32.800
55.800	54.973	255.801	29.115	43.817	1.000	37.765	309.659	2.000	32.800
55.900	54.983	245.450	29.115	43.815	1.000	37.676	309.659	2.000	32.800
56.000	54.972	258.663	29.116	43.811	1.000	37.651	309.648	2.000	32.403
56.100	54.961	252.235	29.116	43.771	1.000	37.709	309.640	2.000	32.796
56.200	54.972	247.875	29.117	43.697	1.000	37.715	309.643	2.000	32.800
56.300	54.974	260.998	29.117	43.649	1.000	37.706	309.640	2.000	32.404
56.400	54.961	249.516	29.117	43.632	1.000	37.597	309.643	2.000	32.795
56.500	54.962	251.430	29.117	43.626	1.000	37.755	309.629	2.000	32.404
56.600	54.962	258.625	29.117	43.624	1.000	37.777	309.628	2.000	32.793
56.700	54.962	248.444	29.117	43.622	1.000	37.741	309.624	2.000	32.800
56.800	54.962	255.798	29.117	43.589	1.000	37.759	309.627	2.000	32.404
56.900	54.962	254.678	29.118	43.521	1.000	37.628	309.624	2.000	32.400
57.000	54.961	247.143	29.118	43.470	1.000	37.607	309.617	2.000	32.794
57.100	54.962	255.451	29.118	43.450	1.000	37.606	309.616	2.000	32.800
57.200	54.962	251.064	29.118	43.443	1.000	37.739	309.619	2.000	32.800
57.300	54.961	251.551	29.118	43.441	1.000	37.658	309.613	2.000	32.800
57.400	54.961	256.771	29.118	43.440	1.000	37.638	309.609	2.000	32.800
57.500	54.962	250.011	29.118	43.426	1.000	37.657	309.594	2.000	32.800
57.600	54.961	253.693	29.118	43.371	1.000	37.758	309.589	2.000	32.800
57.700	54.961	256.129	29.118	43.304	1.000	37.719	309.592	2.000	32.800
57.800	54.961	254.830	29.118	43.276	1.000	37.673	309.589	2.000	32.800
57.900	54.962	257.533	29.118	43.266	1.000	37.730	309.585	2.000	32.800
58.000	54.962	250.775	29.118	43.263	1.000	37.723	309.567	2.000	32.800
58.100	54.961	248.762	29.118	43.261	1.000	37.755	309.566	2.000	32.411
58.200	54.961	255.739	29.119	43.250	1.000	37.699	309.583	2.000	32.400
58.300	54.961	249.752	29.119	43.201	1.000	37.543	309.592	2.000	32.400
58.400	54.961	245.017	29.119	43.135	1.000	37.661	309.579	2.000	32.797
58.500	54.961	255.026	29.119	43.104	1.000	37.748	309.563	2.000	32.800
58.600	54.961	250.542	29.119	43.091	1.000	37.815	309.548	2.000	32.403
58.700	54.961	251.220	29.119	43.088	1.000	37.683	309.553	2.000	32.795
58.800	54.961	260.176	29.119	43.086	1.000	37.720	309.550	2.000	32.800
58.900	54.962	250.605	29.119	43.084	1.000	37.691	309.550	2.000	32.800
59.000	54.962	253.741	29.120	43.052	1.000	37.766	309.526	2.000	32.800
59.100	54.961	253.986	29.120	42.987	1.000	37.733	309.530	2.000	32.800
59.200	54.961	250.084	29.120	42.943	1.000	37.740	309.538	2.000	32.402
59.300	54.962	258.466	29.120	42.927	1.000	37.604	309.545	2.000	32.400
59.400	54.961	257.001	29.120	42.921	1.000	37.655	309.539	2.000	32.798
59.500	54.960	245.683	29.120	42.918	1.000	37.582	309.535	2.000	32.402
59.600	54.952	245.642	29.120	42.916	1.000	37.535	309.531	2.000	32.798
59.700	54.937	260.158	29.121	42.891	1.000	37.709	309.527	2.000	32.403
59.800	54.948	249.536	29.121	42.828	1.000	37.567	309.520	2.000	32.790
59.900	54.952	253.464	29.121	42.778	1.000	37.547	309.512	2.000	32.800
60.000	54.938	260.072	29.121	42.760	1.000	37.704	309.501	2.000	32.800
60.100	54.947	244.757	29.121	42.753	1.000	37.565	309.506	2.000	32.800
60.200	54.951	256.579	29.121	42.751	1.000	37.586	309.507	2.000	32.404
60.300	54.945	253.269	29.121	42.750	1.000	37.548	309.507	2.000	32.796
60.400	54.962	244.702	29.121	42.740	1.000	37.545	309.507	2.000	32.404
60.500	54.961	260.479	29.122	42.693	1.000	37.588	309.500	2.000	32.400
60.600	54.952	249.932	29.122	42.629	1.000	37.552	309.496	2.000	32.400
60.700	54.927	248.754	29.122	42.603	1.000	37.565	309.492	2.000	32.795
60.800	54.920	259.501	29.122	42.593	1.000	37.647	309.478	2.000	32.800
60.900	54.944	245.976	29.122	42.590	1.000	37.642	309.480	2.000	32.405
61.000	54.943	253.966	29.122	42.589	1.000	37.534	309.473	2.000	32.795
61.100	54.920	257.575	29.122	42.581	1.000	37.705	309.469	2.000	32.408
61.200	54.944	250.962	29.123	42.539	1.000	37.676	309.472	2.000	32.400
61.300	54.954	260.816	29.123	42.476	1.000	37.609	309.469	2.000	32.798
61.400	54.938	253.472	29.123	42.447	1.000	37.710	309.458	2.000	32.800
61.500	54.940	252.530	29.123	42.436	1.000	37.695	309.453	2.000	32.402
61.600	54.935	260.536	29.123	42.431	1.000	37.780	309.449	2.000	32.798
61.700	54.925	253.308	29.123	42.430	1.000	37.870	309.435	2.000	32.800
61.800	54.912	257.210	29.123	42.429	1.000	37.897	309.434	2.000	32.800
61.900	54.912	257.061	29.123	42.406	1.000	38.151	309.399	2.000	32.800
62.000	54.918	255.124	29.123	42.346	1.000	38.221	309.395	2.000	32.800
62.100	54.925	258.925	29.123	42.302	1.000	38.037	309.402	2.000	32.800
62.200	54.919	255.390	29.123	42.286	1.000	37.912	309.409	2.000	32.800
62.300	54.934	253.702	29.124	42.280	1.000	37.911	309.417	2.000	32.800
62.400	54.924	251.660	29.123	42.279	1.000	37.881	309.401	2.000	32.800
62.500	54.919	259.825	29.123	42.276	1.000	38.101	309.388	2.000	32.800
62.600	54.935	260.274	29.124	42.255	1.000	38.286	309.377	2.000	32.800
62.700	54.933	258.244	29.124	42.199	1.000	38.626	309.358	2.000	32.800
62.800	54.938	270.206	29.124	42.152	1.000	38.353	309.356	2.000	32.800
62.900	54.939	260.657	29.124	42.135	1.000	38.409	309.352	2.000	32.800
63.000	54.935	253.880	29.124	42.130	1.000	38.686	309.325	2.000	33.198
63.100	54.932	268.101	29.124	42.127	1.000	38.905	309.317	2.000	33.200
63.200	54.938	271.410	29.124	42.126	1.000	38.939	309.318	2.000	33.200
63.300	54.947	267.325	29.124	42.120	1.000	38.848	309.320	2.000	32.803
63.400	54.960	267.403	29.124	42.083	1.000	38.792	309.315	2.000	32.800
63.500	54.954	267.830	29.125	42.022	1.000	38.650	309.307	2.000	32.800
63.600	54.937	263.575	29.124	41.994	1.000	38.523	309.314	2.000	32.800
63.700	54.947	265.044	29.125	41.985	1.000	38.330	309.324	2.000	32.800
63.800	54.954	260.795	29.125	41.981	1.000	38.097	309.336	2.000	32.800
63.900	54.937	260.647	29.125	41.981	1.000	37.891	309.327	2.000	32.800
64.000	54.946	257.903	29.125	41.977	1.000	37.800	309.328	2.000	32.800
64.100	54.954	251.109	29.125	41.947	1.000	37.753	309.340	2.000	32.800
64.200	54.937	260.243	29.126	41.885	1.000	37.800	309.335	2.000	32.800
64.300	54.946	249.180	29.125	41.852	1.000	37.741	309.327	2.000	32.405
64.400	54.962	255.232	29.126	41.841	1.000	37.672	309.335	2.000	32.400
64.500	54.962	264.512	29.125	41.838	1.000	37.618	309.337	2.000	32.400
64.600	54.962	247.855	29.125	41.838	1.000	37.535	309.334	2.000	32.400
64.700	54.956	258.278	29.125	41.836	1.000	37.583	309.325	2.000	32.400
64.800	54.946	253.601	29.126	41.821	1.000	37.492	309.326	2.000	32.400
64.900	54.954	241.489	29.127	41.770	1.000	37.434	309.326	2.000	32.400
65.000	54.936	262.910	29.127	41.725	1.000	37.363	309.325	2.000	32.400
65.100	54.946	249.034	29.127	41.708	1.000	37.355	309.317	2.000	32.400
65.200	54.955	250.648	29.127	41.702	1.000	37.447	309.316	2.000	32.400
65.300	54.937	261.318	29.127	41.700	1.000	37.433	309.317	2.000	32.400
65.400	54.940	239.739	29.127	41.698	1.000	37.381	309.315	2.000	32.400
65.500	54.934	255.682	29.127	41.686	1.000	37.385	309.313	2.000	32.400
65.600	54.926	253.114	29.128	41.639	1.000	37.374	309.316	2.000	32.400
65.700	54.912	240.482	29.128	41.591	1.000	37.304	309.310	2.000	32.400
65.800	54.912	259.468	29.128	41.573	1.000	37.347	309.303	2.000	32.400
65.900	54.912	240.515	29.127	41.567	1.000	37.364	309.292	2.000	32.400
66.000	54.912	237.358	29.128	41.566	1.000	37.342	309.281	2.000	32.400
66.100	54.912	248.698	29.128	41.564	1.000	37.362	309.281	2.000	32.400
66.200	54.911	250.908	29.128	41.555	1.000	37.381	309.287	2.000	32.400
66.300	54.911	248.103	29.128	41.512	1.000	37.403	309.285	2.000	32.400
66.400	54.911	250.365	29.129	41.464	1.000	37.396	309.280	2.000	32.400
66.500	54.912	246.132	29.129	41.442	1.000	37.328	309.278	2.000	32.400
66.600	54.911	253.473	29.128	41.435	1.000	37.370	309.271	2.000	32.400
66.700	54.911	252.100	29.129	41.434	1.000	37.379	309.269	2.000	32.400
66.800	54.912	245.672	29.129	41.432	1.000	37.475	309.258	2.000	32.400
66.900	54.912	260.162	29.129	41.422	1.000	37.529	309.246	2.000	32.400
67.000	54.912	246.686	29.130	41.371	1.000	37.418	309.243	2.000	32.400
67.100	54.912	252.350	29.130	41.330	1.000	37.409	309.241	2.000	32.400
67.200	54.911	254.376	29.130	41.315	1.000	37.472	309.242	2.000	32.400
67.300	54.911	231.204	29.130	41.312	1.000	37.492	309.241	2.000	32.400
67.400	54.912	269.266	29.130	41.307	1.000	37.516	309.237	2.000	32.400
67.500	54.912	248.143	29.130	41.308	1.000	37.543	309.223	2.000	32.798
67.600	54.912	242.112	29.130	41.303	1.000	37.791	309.201	2.000	32.800
67.700	54.912	269.012	29.131	41.257	1.000	37.915	309.190	2.000	32.800
67.800	54.912	241.305	29.131	41.212	1.000	38.064	309.189	2.000	32.800
67.900	54.911	258.187	29.131	41.194	1.000	38.264	309.172	2.000	32.800
68.000	54.912	271.315	29.131	41.190	1.000	38.526	309.145	2.000	32.800
68.100	54.912	249.887	29.131	41.185	1.000	38.775	309.125	2.000	32.800
68.200	54.912	268.594	29.131	41.185	1.000	38.854	309.119	2.000	33.196
68.300	54.912	278.374	29.131	41.182	1.000	38.957	309.107	2.000	33.200
68.400	54.912	250.548	29.131	41.142	1.000	39.017	309.100	2.000	33.200
68.500	54.911	280.993	29.131	41.095	1.000	39.080	309.087	2.000	33.200
68.600	54.912	269.350	29.130	41.076	1.000	39.134	309.080	2.000	33.200
68.700	54.912	258.141	29.131	41.069	1.000	39.039	309.083	2.000	33.200
68.800	54.912	283.020	29.131	41.068	1.000	39.136	309.077	2.000	33.200
68.900	54.912	257.029	29.131	41.068	1.000	39.220	309.063	2.000	33.200
69.000	54.928	270.696	29.131	41.067	1.000	39.684	309.021	2.000	33.595
69.100	54.912	282.944	29.130	41.049	1.000	40.671	308.955	2.000	33.996
69.200	54.937	270.703	29.131	40.991	1.000	41.141	308.929	2.000	34.000
69.300	54.961	305.637	29.130	40.963	1.000	41.302	308.924	2.000	34.000
69.400	54.960	294.461	29.130	40.952	1.000	41.416	308.912	2.000	34.000
69.500	54.962	286.632	29.131	40.948	1.000	41.624	308.896	2.000	34.000
69.600	54.962	308.707	29.131	40.947	1.000	41.618	308.890	2.000	34.000
69.700	54.961	294.040	29.130	40.947	1.000	41.407	308.890	2.000	34.000
69.800	54.962	299.958	29.130	40.935	1.000	41.199	308.895	2.000	33.610
69.900	54.961	299.314	29.130	40.881	1.000	40.779	308.915	2.000	33.600
70.000	54.985	279.604	29.130	40.850	1.000	40.473	308.927	2.000	33.600
70.100	55.009	293.373	29.130	40.838	1.000	40.115	308.941	2.000	33.600
70.200	54.986	282.111	29.130	40.835	1.000	39.772	308.958	2.000	33.204
70.300	54.990	274.315	29.130	40.832	1.000	39.699	308.964	2.000	33.200
70.400	55.008	283.471	29.130	40.834	1.000	39.547	308.971	2.000	33.200
70.500	55.008	272.424	29.130	40.829	1.000	39.257	308.980	2.000	33.200
70.600	55.009	274.303	29.131	40.789	1.000	39.034	308.983	2.000	33.200
70.700	55.009	269.553	29.131	40.747	1.000	38.912	308.986	2.000	33.200
70.800	55.009	266.755	29.131	40.730	1.000	38.882	308.992	2.000	33.200
70.900	55.009	272.736	29.131	40.724	1.000	38.931	308.981	2.000	33.200
71.000	55.010	265.599	29.131	40.722	1.000	38.899	308.969	2.000	33.200
71.100	55.009	265.254	29.131	40.720	1.000	38.930	308.968	2.000	33.200
71.200	55.009	267.205	29.131	40.720	1.000	38.955	308.970	2.000	33.200
71.300	55.009	262.317	29.131	40.686	1.000	38.990	308.967	2.000	33.200
71.400	55.009	270.099	29.131	40.640	1.000	39.043	308.954	2.000	33.200
71.500	55.009	268.511	29.131	40.620	1.000	39.012	308.956	2.000	33.200
71.600	55.009	268.730	29.131	40.613	1.000	39.007	308.951	2.000	33.200
71.700	55.032	274.031	29.131	40.609	1.000	39.033	308.935	2.000	33.200
71.800	55.010	264.840	29.131	40.610	1.000	38.950	308.936	2.000	33.200
71.900	55.028	272.686	29.131	40.609	1.000	38.890	308.938	2.000	33.200
72.000	55.010	270.723	29.132	40.596	1.000	38.796	308.942	2.000	32.803
72.100	55.033	259.973	29.132	40.548	1.000	38.714	308.937	2.000	32.800
72.200	55.029	274.335	29.131	40.520	1.000	38.725	308.935	2.000	32.800
72.300	55.034	265.100	29.132	40.509	1.000	38.521	308.946	1.505	32.800
72.400	55.011	264.745	29.132	40.505	1.000	38.164	308.962	1.500	32.800
72.500	55.032	261.285	29.132	40.504	1.000	37.922	308.975	1.500	32.404
72.600	55.029	245.333	29.131	40.504	1.000	37.689	308.987	1.500	32.400
72.700	55.010	265.873	29.131	40.494	1.000	37.489	308.993	1.500	32.400
72.800	55.031	251.834	29.131	40.448	1.000	37.133	309.009	1.500	32.400
72.900	55.012	236.748	29.131	40.421	1.000	36.984	309.011	1.500	32.400
73.000	55.009	255.385	29.131	40.410	1.000	36.942	309.007	1.500	32.400
73.100	55.009	249.237	29.131	40.406	1.000	36.864	309.016	1.500	32.400
73.200	55.009	233.592	29.132	40.404	1.000	36.840	309.015	1.500	32.400
73.300	55.009	256.898	29.131	40.404	1.000	36.877	309.008	1.500	32.400
73.400	55.010	237.849	29.132	40.401	1.000	36.836	309.007	1.500	32.400
73.500	55.009	237.801	29.131	40.371	1.000	36.987	308.995	1.500	32.400
73.600	55.009	257.877	29.131	40.333	1.000	37.096	308.990	1.500	32.400
73.700	55.009	233.605	29.131	40.316	1.000	37.060	308.984	1.500	32.400
73.800	55.009	253.838	29.131	40.308	1.000	37.070	308.972	1.500	32.400
73.900	55.009	256.252	29.131	40.306	1.000	37.085	308.972	1.500	32.400
74.000	55.009	227.830	29.131	40.306	1.000	37.064	308.971	1.500	32.400
74.100	55.009	257.705	29.131	40.304	1.000	37.104	308.965	1.500	32.400
74.200	54.994	247.480	29.131	40.280	1.000	37.107	308.966	1.500	32.400
74.300	55.007	237.872	29.131	40.241	1.000	37.101	308.968	1.500	32.400
74.400	54.986	260.920	29.131	40.221	1.000	37.095	308.958	1.500	32.400
74.500	54.991	236.134	29.131	40.212	1.000	37.206	308.943	1.500	32.400
74.600	55.007	244.792	29.131	40.211	1.000	37.299	308.932	1.500	32.400
74.700	54.989	261.619	29.131	40.210	1.000	37.229	308.929	1.500	32.400
74.800	54.991	231.595	29.131	40.211	1.000	37.304	308.927	1.500	32.400
74.900	54.984	252.585	29.131	40.201	1.000	37.384	308.918	1.500	32.400
75.000	54.979	256.138	29.131	40.162	1.000	37.461	308.906	1.500	32.400
75.100	54.986	238.049	29.132	40.135	1.000	37.472	308.904	1.500	32.400
75.200	54.966	264.742	29.131	40.123	1.000	37.482	308.908	1.500	32.400
75.300	54.982	249.041	29.131	40.120	1.000	37.478	308.898	1.500	32.400
75.400	54.981	245.857	29.131	40.119	1.000	37.471	308.890	1.500	32.400
75.500	54.965	266.492	29.132	40.118	1.000	37.466	308.888	1.500	32.400
75.600	54.981	240.250	29.132	40.112	1.000	37.346	308.889	1.500	32.400
75.700	54.980	251.030	29.132	40.075	1.000	37.342	308.883	1.500	32.400
75.800	54.964	262.779	29.131	40.047	1.000	37.347	308.883	1.500	32.400
75.900	54.962	240.953	29.131	40.035	1.000	37.279	308.886	1.500	32.400
76.000	54.962	256.674	29.131	40.031	1.000	37.415	308.872	1.500	32.400
76.100	54.962	251.325	29.131	40.030	1.000	37.509	308.863	1.500	32.400
76.200	54.961	245.777	29.131	40.029	1.000	37.455	308.858	1.500	32.400
76.300	54.962	258.423	29.131	40.026	1.000	37.244	308.869	1.500	32.400
76.400	54.961	247.314	29.131	40.003	1.000	37.081	308.879	1.500	32.400
76.500	54.961	247.742	29.131	39.968	1.000	37.193	308.867	1.500	32.400
76.600	54.960	254.342	29.131	39.950	1.000	37.295	308.854	1.500	32.400
76.700	54.961	242.613	29.131	39.944	1.000	37.385	308.847	1.500	32.400
76.800	54.962	250.767	29.131	39.942	1.000	37.398	308.839	1.500	32.400
76.900	54.961	249.782	29.131	39.940	1.000	37.260	308.838	1.500	32.400
77.000	54.962	247.956	29.131	39.939	1.000	37.318	308.840	1.500	32.400
77.100	54.962	253.858	29.131	39.922	1.000	37.364	308.837	1.500	32.400
77.200	54.961	248.672	29.131	39.888	1.000	37.332	308.829	1.500	32.400
77.300	54.962	251.619	29.130	39.867	1.000	37.212	308.833	1.500	32.400
77.400	54.962	248.521	29.130	39.860	1.000	37.167	308.833	1.500	32.400
77.500	54.961	247.892	29.130	39.857	1.000	37.340	308.819	1.500	32.400
77.600	54.961	248.889	29.131	39.857	1.000	37.425	308.810	1.500	32.400
77.700	54.961	247.635	29.131	39.855	1.000	37.360	308.806	1.500	32.400
77.800	54.961	256.433	29.130	39.847	1.000	37.363	308.807	1.500	32.400
77.900	54.961	248.514	29.130	39.815	1.000	37.374	308.802	1.500	32.400
78.000	54.961	249.836	29.130	39.791	1.000	37.301	308.792	1.500	32.400
78.100	54.946	253.483	29.130	39.778	1.000	37.290	308.792	1.500	32.400
78.200	54.957	245.732	29.130	39.774	1.000	37.296	308.805	1.500	32.400
78.300	54.942	258.479	29.130	39.773	1.000	37.203	308.806	1.500	32.400
78.400	54.940	253.797	29.130	39.774	1.000	37.207	308.789	1.500	32.400
78.500	54.956	240.380	29.130	39.769	1.000	37.236	308.781	1.500	32.400
78.600	54.942	258.911	29.130	39.736	1.000	37.243	308.779	1.500	32.400
78.700	54.940	244.670	29.130	39.708	1.000	37.300	308.768	1.500	32.400
78.800	54.937	249.939	29.130	39.696	1.000	37.398	308.758	1.500	32.400
78.900	54.955	262.762	29.130	39.692	1.000	37.400	308.754	1.500	32.400
79.000	54.942	245.477	29.130	39.690	1.000	37.346	308.745	1.500	32.400
79.100	54.918	257.948	29.129	39.690	1.000	37.314	308.737	1.500	32.400
79.200	54.929	260.191	29.130	39.688	1.000	37.323	308.739	1.500	32.400
79.300	54.932	241.006	29.129	39.668	1.000	37.273	308.750	1.500	32.400
79.400	54.916	259.707	29.129	39.635	1.000	37.223	308.743	1.500	32.400
79.500	54.930	248.547	29.129	39.616	1.000	37.248	308.735	1.500	32.400
79.600	54.955	245.327	29.129	39.609	1.000	37.251	308.733	1.500	32.400
79.700	54.926	260.864	29.129	39.608	1.000	37.231	308.722	1.500	32.400
79.800	54.912	243.088	29.129	39.608	1.000	37.249	308.720	1.500	32.400
79.900	54.912	250.571	29.129	39.607	1.000	37.303	308.717	1.500	32.400
80.000	54.912	254.767	29.129	39.590	1.000	37.580	308.696	1.500	32.797
80.100	54.912	245.591	29.129	39.557	1.000	38.004	308.668	1.500	32.800
80.200	54.912	266.621	29.129	39.537	1.000	38.532	308.634	1.500	33.196
80.300	54.912	262.667	29.129	39.530	1.000	39.078	308.596	1.500	33.200
80.400	54.911	261.651	29.129	39.527	1.000	39.547	308.559	1.500	33.596
80.500	54.911	274.735	29.129	39.526	1.000	39.876	308.540	1.500	33.600
80.600	54.927	273.350	29.129	39.526	1.000	40.033	308.521	1.500	33.600
80.700	54.953	277.990	29.129	39.520	1.000	40.278	308.492	1.500	33.600
80.800	54.944	281.228	29.129	39.489	1.000	40.595	308.470	1.500	33.600
80.900	54.955	285.458	29.129	39.464	1.000	40.545	308.463	1.500	33.600
81.000	54.962	291.898	29.129	39.454	1.000	40.573	308.461	1.500	33.600
81.100	54.961	284.999	29.129	39.449	1.000	40.816	308.446	1.500	33.600
81.200	54.962	288.651	29.129	39.447	1.000	40.951	308.434	1.500	33.998
81.300	54.962	292.161	29.129	39.447	1.000	40.809	308.437	1.500	33.602
81.400	54.974	292.841	29.129	39.443	1.000	40.526	308.447	1.500	33.600
81.500	54.967	288.792	29.129	39.417	1.000	40.335	308.454	1.500	33.600
81.600	54.994	279.541	29.129	39.391	1.000	39.998	308.464	1.500	33.206
81.700	55.009	285.500	29.129	39.378	1.000	39.626	308.473	1.500	33.200
81.800	55.009	278.334	29.129	39.373	1.000	39.238	308.490	1.500	32.803
81.900	55.010	269.243	29.129	39.372	1.000	38.892	308.518	1.500	32.800
82.000	55.010	276.106	29.129	39.372	1.000	38.758	308.516	1.500	32.800
82.100	55.009	264.918	29.129	39.371	1.000	38.592	308.519	1.500	32.800
82.200	55.010	266.706	29.130	39.355	1.000	38.457	308.531	1.500	32.800
82.300	55.010	268.732	29.130	39.327	1.000	38.421	308.529	1.500	32.800
82.400	55.009	257.132	29.130	39.309	1.000	38.316	308.534	1.500	32.800
82.500	55.009	269.654	29.130	39.301	1.000	38.198	308.532	1.500	32.800
82.600	55.009	262.530	29.130	39.299	1.000	38.134	308.527	1.500	32.800
82.700	55.009	254.894	29.130	39.298	1.000	38.111	308.536	1.500	32.800
82.800	55.009	268.003	29.130	39.298	1.000	38.151	308.521	1.500	32.800
82.900	55.009	254.367	29.130	39.284	1.000	38.124	308.510	1.500	32.800
83.000	55.009	257.757	29.129	39.257	1.000	38.058	308.514	1.500	32.800
83.100	55.010	270.199	29.129	39.239	1.000	38.002	308.509	1.500	32.800
83.200	55.009	248.840	29.129	39.233	1.000	37.954	308.513	1.500	32.800
83.300	55.010	258.524	29.129	39.229	1.000	38.062	308.502	1.500	32.800
83.400	55.009	264.545	29.129	39.228	1.000	38.213	308.488	1.500	32.800
83.500	55.010	252.456	29.129	39.228	1.000	38.229	308.489	1.500	32.800
83.600	55.010	268.278	29.129	39.223	1.000	38.089	308.495	1.500	32.800
83.700	55.010	261.437	29.128	39.199	1.000	37.945	308.496	1.500	32.800
83.800	55.010	250.119	29.128	39.175	1.000	37.887	308.490	1.500	32.800
83.900	55.009	265.922	29.128	39.163	1.000	37.817	308.484	1.500	32.800
84.000	55.009	251.301	29.128	39.158	1.000	37.758	308.483	1.500	32.800
84.100	55.009	255.051	29.128	39.156	1.000	37.672	308.487	1.500	32.800
84.200	55.009	264.633	29.128	39.156	1.000	37.656	308.488	1.500	32.800
84.300	55.010	244.330	29.128	39.154	1.000	37.643	308.493	1.500	32.404
84.400	55.010	257.737	29.128	39.131	1.000	37.608	308.492	1.500	32.796
84.500	55.009	258.943	29.128	39.106	1.000	37.702	308.476	1.500	32.404
84.600	55.009	246.114	29.128	39.094	1.000	37.747	308.465	1.500	32.795
84.700	55.009	263.465	29.128	39.089	1.000	37.728	308.463	1.500	32.800
84.800	54.998	255.155	29.128	39.087	1.000	37.583	308.465	1.500	32.405
84.900	55.002	248.480	29.128	39.087	1.000	37.470	308.465	1.500	32.400
85.000	54.994	262.379	29.128	39.087	1.000	37.503	308.459	1.500	32.795
85.100	54.989	248.012	29.128	39.073	1.000	37.623	308.451	1.500	32.409
85.200	55.002	252.705	29.128	39.046	1.000	37.627	308.450	1.500	32.400
85.300	54.995	261.897	29.128	39.028	1.000	37.635	308.447	1.500	32.400
85.400	55.000	246.772	29.128	39.021	1.000	37.661	308.444	1.500	32.400
85.500	55.010	257.012	29.128	39.018	1.000	37.690	308.433	1.500	32.798
85.600	55.009	257.001	29.128	39.016	1.000	37.720	308.427	1.500	32.403
85.700	55.010	248.404	29.128	39.017	1.000	37.671	308.426	1.500	32.400
85.800	55.009	261.279	29.128	39.005	1.000	37.679	308.420	1.500	32.400
85.900	54.998	255.233	29.128	38.977	1.000	37.641	308.408	1.500	32.400
86.000	55.002	250.589	29.128	38.956	1.000	37.629	308.399	1.500	32.400
86.100	54.994	256.076	29.128	38.948	1.000	37.610	308.408	1.500	32.400
86.200	54.988	248.016	29.128	38.946	1.000	37.534	308.412	1.500	32.400
86.300	55.001	255.061	29.128	38.945	1.000	37.604	308.396	1.500	32.400
86.400	54.996	260.677	29.128	38.944	1.000	37.682	308.386	1.500	32.400
86.500	54.988	251.175	29.128	38.940	1.000	37.756	308.386	1.500	32.400
86.600	55.001	257.909	29.128	38.917	1.000	37.752	308.386	1.500	32.400
86.700	54.997	256.975	29.128	38.891	1.000	37.725	308.383	1.500	32.795
86.800	54.991	254.951	29.127	38.878	1.000	37.802	308.377	1.500	32.800
86.900	54.989	258.453	29.127	38.875	1.000	37.857	308.365	1.500	32.405
87.000	54.999	254.370	29.127	38.872	1.000	37.920	308.352	1.500	32.795
87.100	54.996	257.762	29.127	38.872	1.000	37.971	308.347	1.500	32.800
87.200	54.973	260.422	29.127	38.869	1.000	37.868	308.349	1.500	32.402
87.300	54.975	258.940	29.127	38.847	1.000	37.741	308.357	1.500	32.400
87.400	54.998	258.736	29.127	38.820	1.000	37.691	308.356	1.500	32.798
87.500	54.995	255.828	29.127	38.807	1.000	37.695	308.349	1.500	32.800
87.600	54.988	256.491	29.127	38.802	1.000	37.694	308.347	1.500	32.403
87.700	55.001	254.324	29.127	38.801	1.000	37.649	308.347	1.500	32.797
87.800	54.996	252.800	29.127	38.801	1.000	37.664	308.336	1.500	32.403
87.900	54.990	259.441	29.127	38.800	1.000	37.613	308.325	1.500	32.400
88.000	54.989	256.553	29.127	38.786	1.000	37.648	308.315	1.500	32.400
88.100	54.982	254.538	29.126	38.759	1.000	37.735	308.310	1.500	32.400
88.200	54.970	254.946	29.126	38.739	1.000	37.728	308.310	1.500	32.796
88.300	54.963	249.728	29.126	38.731	1.000	37.713	308.306	1.500	32.404
88.400	54.975	257.461	29.126	38.728	1.000	37.733	308.306	1.500	32.400
88.500	54.982	255.636	29.126	38.727	1.000	37.805	308.297	1.500	32.796
88.600	54.970	252.074	29.126	38.727	1.000	37.761	308.291	1.500	32.405
88.700	54.974	261.380	29.126	38.717	1.000	37.708	308.295	1.500	32.400
88.800	54.982	253.389	29.126	38.691	1.000	37.737	308.290	1.500	32.400
88.900	54.970	255.410	29.126	38.669	1.000	37.815	308.276	1.500	32.795
89.000	54.974	263.501	29.126	38.661	1.000	37.741	308.271	1.500	32.412
89.100	54.983	251.999	29.126	38.657	1.000	37.713	308.269	1.500	32.794
89.200	54.983	258.772	29.126	38.656	1.000	37.647	308.274	1.500	32.402
89.300	54.974	255.558	29.126	38.656	1.000	37.613	308.274	1.500	32.400
89.400	54.961	244.436	29.126	38.651	1.000	37.669	308.263	1.500	32.400
89.500	54.961	261.488	29.126	38.630	1.000	37.620	308.255	1.500	32.400
89.600	54.962	254.413	29.126	38.603	1.000	37.635	308.252	1.500	32.400
89.700	54.961	249.220	29.126	38.590	1.000	37.753	308.239	1.500	32.797
89.800	54.961	262.857	29.126	38.585	1.000	37.758	308.230	1.500	32.800
89.900	54.961	251.925	29.126	38.584	1.000	37.741	308.230	1.500	32.800
90.000	54.962	258.989	29.126	38.584	1.000	37.762	308.228	1.500	32.800
90.100	54.962	262.212	29.126	38.581	1.000	37.780	308.220	1.500	32.408
90.200	54.962	250.245	29.127	38.562	1.000	37.841	308.213	1.500	32.796
90.300	54.961	261.904	29.127	38.535	1.000	37.876	308.211	1.500	32.800
90.400	54.962	255.017	29.127	38.522	1.000	37.855	308.205	1.500	32.800
90.500	54.961	250.664	29.127	38.517	1.000	37.947	308.195	1.500	32.800
90.600	54.961	267.306	29.127	38.515	1.000	37.993	308.189	1.500	32.800
90.700	54.962	256.984	29.127	38.514	1.000	37.882	308.188	1.500	32.800
90.800	54.963	254.002	29.127	38.514	1.000	37.883	308.184	1.500	32.800
90.900	54.962	267.967	29.127	38.503	1.000	37.855	308.176	1.500	32.405
91.000	54.962	255.022	29.127	38.479	1.000	37.806	308.166	1.500	32.795
91.100	54.962	253.223	29.127	38.460	1.000	37.853	308.165	1.500	32.800
91.200	54.962	266.124	29.127	38.452	1.000	37.871	308.168	1.500	32.402
91.300	54.962	249.592	29.127	38.449	1.000	37.853	308.162	1.500	32.798
91.400	54.962	254.899	29.127	38.449	1.000	37.813	308.155	1.500	32.402
91.500	54.962	264.540	29.127	38.448	1.000	37.732	308.155	1.500	32.400
91.600	54.962	248.844	29.127	38.439	1.000	37.652	308.155	1.500	32.797
91.700	54.962	260.864	29.127	38.415	1.000	37.674	308.153	1.500	32.800
91.800	54.961	257.010	29.127	38.395	1.000	37.696	308.151	1.500	32.403
91.900	54.961	246.472	29.127	38.387	1.000	37.611	308.145	1.500	32.400
92.000	54.961	262.991	29.127	38.385	1.000	37.647	308.135	1.500	32.797
92.100	54.961	261.520	29.127	38.384	1.000	37.802	308.123	1.500	32.800
92.200	54.961	257.174	29.127	38.383	1.000	37.713	308.126	1.500	32.410
92.300	54.962	256.442	29.127	38.380	1.000	37.572	308.133	1.005	32.400
92.400	54.962	252.767	29.127	38.362	1.000	37.601	308.127	1.000	32.400
92.500	54.961	254.918	29.127	38.337	1.000	37.595	308.126	1.000	32.400
92.600	54.961	253.034	29.127	38.326	1.000	37.543	308.121	1.000	32.400
92.700	54.961	253.379	29.127	38.321	1.000	37.616	308.108	1.000	32.400
92.800	54.962	255.468	29.127	38.319	1.000	37.674	308.106	1.000	32.400
92.900	54.962	254.939	29.127	38.319	1.000	37.627	308.102	1.000	32.400
93.000	54.962	253.829	29.126	38.316	1.000	37.559	308.101	1.000	32.400
93.100	54.962	250.292	29.126	38.302	1.000	37.552	308.094	1.000	32.400
93.200	54.961	254.783	29.126	38.278	1.000	37.643	308.083	1.000	32.798
93.300	54.961	254.022	29.126	38.264	1.000	37.700	308.079	1.000	32.402
93.400	54.962	253.744	29.126	38.260	1.000	37.777	308.069	1.000	32.400
93.500	54.962	256.593	29.126	38.258	1.000	37.798	308.070	1.000	32.400
93.600	54.962	249.049	29.126	38.257	1.000	37.764	308.067	1.000	32.400
93.700	54.962	258.861	29.126	38.257	1.000	37.800	308.056	1.000	32.797
93.800	54.962	259.525	29.127	38.249	1.000	37.763	308.054	1.000	32.403
93.900	54.961	249.675	29.126	38.229	1.000	37.675	308.050	1.000	32.400
94.000	54.961	262.142	29.126	38.206	1.000	37.620	308.042	1.000	32.400
94.100	54.962	250.676	29.127	38.198	1.000	37.585	308.044	1.000	32.400
94.200	54.961	248.846	29.127	38.195	1.000	37.590	308.048	1.000	32.400
94.300	54.961	260.388	29.126	38.194	1.000	37.549	308.044	1.000	32.400
94.400	54.961	249.342	29.126	38.194	1.000	37.544	308.038	1.000	32.400
94.500	54.962	256.203	29.126	38.189	1.000	37.572	308.036	1.000	32.400
94.600	54.962	257.868	29.126	38.169	1.000	37.446	308.036	1.000	32.400
94.700	54.962	245.456	29.126	38.147	1.000	37.442	308.030	1.000	32.400
94.800	54.962	260.510	29.126	38.137	1.000	37.475	308.025	1.000	32.400
94.900	54.961	252.504	29.126	38.132	1.000	37.442	308.017	1.000	32.400
95.000	54.961	246.496	29.126	38.132	1.000	37.503	308.005	1.000	32.400
95.100	54.963	259.779	29.126	38.132	1.000	37.540	308.003	1.000	32.400
95.200	54.962	248.073	29.126	38.130	1.000	37.492	308.009	1.000	32.400
95.300	54.962	252.564	29.125	38.116	1.000	37.522	308.003	1.000	32.798
95.400	54.962	257.775	29.125	38.092	1.000	37.641	307.986	1.000	32.402
95.500	54.961	247.218	29.125	38.079	1.000	37.659	307.976	1.000	32.400
95.600	54.961	257.238	29.125	38.074	1.000	37.597	307.974	1.000	32.400
95.700	54.962	252.293	29.125	38.072	1.000	37.611	307.976	1.000	32.400
95.800	54.962	243.028	29.125	38.071	1.000	37.666	307.972	1.000	32.400
95.900	54.962	262.600	29.125	38.069	1.000	37.653	307.962	1.000	32.400
96.000	54.962	259.710	29.125	38.058	1.000	37.611	307.957	1.000	32.400
96.100	54.961	245.263	29.125	38.035	1.000	37.638	307.953	1.000	32.784
96.200	54.961	261.041	29.125	38.020	1.000	37.681	307.951	1.000	32.800
96.300	54.961	253.894	29.125	38.015	1.000	37.604	307.951	1.000	32.404
96.400	54.962	247.088	29.125	38.013	1.000	37.590	307.945	1.000	32.400
96.500	54.961	263.326	29.125	38.013	1.000	37.674	307.933	1.000	32.400
96.600	54.961	250.169	29.125	38.013	1.000	37.694	307.930	1.000	32.400
96.700	54.961	256.508	29.125	38.007	1.000	37.658	307.926	1.000	32.400
96.800	54.956	261.070	29.125	37.987	1.000	37.667	307.918	1.000	32.400
96.900	54.949	245.511	29.125	37.966	1.000	37.707	307.916	1.000	32.794
97.000	54.954	263.189	29.125	37.957	1.000	37.711	307.908	1.000	32.405
97.100	54.939	263.063	29.125	37.954	1.000	37.762	307.896	1.000	32.795
97.200	54.949	255.849	29.126	37.954	1.000	37.780	307.895	1.000	32.800
97.300	54.961	267.294	29.126	37.953	1.000	37.800	307.897	1.000	32.800
97.400	54.961	252.580	29.125	37.948	1.000	37.830	307.890	1.000	32.800
97.500	54.962	256.328	29.125	37.931	1.000	37.824	307.879	1.000	32.800
97.600	54.962	263.955	29.125	37.909	1.000	37.892	307.870	1.000	32.800
97.700	54.962	253.927	29.125	37.900	1.000	37.891	307.861	1.000	32.800
97.800	54.962	260.007	29.125	37.897	1.000	37.819	307.867	1.000	32.800
97.900	54.963	256.363	29.125	37.896	1.000	37.843	307.860	1.000	32.402
98.000	54.962	250.116	29.125	37.895	1.000	37.775	307.852	1.000	32.798
98.100	54.954	259.558	29.125	37.894	1.000	37.867	307.842	1.000	32.407
98.200	54.939	255.883	29.125	37.884	1.000	37.928	307.842	1.000	32.793
98.300	54.948	261.654	29.125	37.863	1.000	37.953	307.841	1.000	32.800
98.400	54.955	261.213	29.125	37.851	1.000	37.998	307.830	1.000	32.800
98.500	54.944	256.154	29.125	37.846	1.000	37.966	307.815	1.000	32.800
98.600	54.962	259.819	29.125	37.845	1.000	37.758	307.833	1.000	32.406
98.700	54.962	261.831	29.125	37.845	1.000	37.684	307.841	1.000	32.400
98.800	54.961	255.323	29.125	37.843	1.000	37.645	307.829	1.000	32.400
98.900	54.962	244.634	29.125	37.835	1.000	37.664	307.823	1.000	32.400
99.000	54.961	265.699	29.125	37.813	1.000	37.668	307.807	1.000	32.400
99.100	54.962	249.368	29.125	37.798	1.000	37.594	307.809	1.000	32.400
99.200	54.956	246.224	29.125	37.793	1.000	37.584	307.817	1.000	32.400
99.300	54.939	264.812	29.125	37.791	1.000	37.501	307.819	1.000	32.400
99.400	54.947	247.716	29.125	37.789	1.000	37.561	307.808	1.000	32.400
99.500	54.954	258.425	29.124	37.789	1.000	37.643	307.795	1.000	32.400
99.600	54.938	261.818	29.124	37.785	1.000	37.582	307.800	1.000	32.400
99.700	54.947	245.866	29.124	37.770	1.000	37.524	307.790	1.000	32.400
99.800	54.957	263.666	29.124	37.751	1.000	37.565	307.776	1.000	32.400
99.900	54.939	253.189	29.124	37.744	1.000	37.540	307.775	1.000	32.400
100.000	54.950	249.167	29.124	37.741	1.000	37.576	307.766	1.000	32.400
100.100	54.955	263.323	29.124	37.741	1.000	37.553	307.763	1.000	32.400
100.200	54.936	246.293	29.124	37.740	1.000	37.520	307.765	1.000	32.400
100.300	54.938	249.002	29.124	37.737	1.000	37.620	307.765	1.000	32.400
100.400	54.942	255.855	29.124	37.725	1.000	37.659	307.757	1.000	32.400
100.500	54.933	252.671	29.125	37.705	1.000	37.651	307.753	1.000	32.400
100.600	54.924	260.221	29.124	37.696	1.000	37.585	307.745	1.000	32.400
100.700	54.918	254.335	29.124	37.694	1.000	37.494	307.746	1.000	32.400
100.800	54.943	247.632	29.124	37.693	1.000	37.503	307.741	1.000	32.400
100.900	54.954	255.478	29.125	37.693	1.000	37.519	307.730	1.000	32.400
101.000	54.937	256.504	29.125	37.692	1.000	37.532	307.726	1.000	32.400
101.100	54.942	244.229	29.124	37.684	1.000	37.575	307.723	1.000	32.791
101.200	54.935	261.708	29.124	37.664	1.000	37.599	307.724	1.000	32.403
101.300	54.925	255.833	29.125	37.651	1.000	37.605	307.721	1.000	32.400
101.400	54.921	255.013	29.125	37.648	1.000	37.622	307.708	1.000	32.797
101.500	54.925	260.275	29.125	37.646	1.000	37.774	307.692	1.000	32.800
101.600	54.911	255.543	29.125	37.646	1.000	37.893	307.679	1.000	32.800
101.700	54.911	262.913	29.125	37.644	1.000	37.970	307.670	1.000	32.800
101.800	54.924	259.838	29.124	37.631	1.000	37.998	307.668	1.000	32.800
101.900	54.932	258.920	29.124	37.614	1.000	37.941	307.662	1.000	32.800
102.000	54.919	258.885	29.124	37.605	1.000	37.982	307.644	1.000	32.800
102.100	54.927	259.217	29.124	37.601	1.000	38.334	307.618	1.000	32.800
102.200	54.954	264.751	29.124	37.600	1.000	38.713	307.596	1.000	32.800
102.300	54.943	267.541	29.124	37.600	1.000	38.858	307.587	1.000	32.800
102.400	54.941	271.480	29.124	37.599	1.000	39.085	307.563	1.000	33.195
102.500	54.959	271.720	29.124	37.588	1.000	39.261	307.549	1.000	33.200
102.600	54.961	275.368	29.123	37.569	1.000	39.295	307.550	1.000	33.200
102.700	54.962	269.439	29.123	37.559	1.000	39.317	307.541	1.000	33.200
102.800	54.962	270.708	29.123	37.556	1.000	39.163	307.541	1.000	33.200
102.900	54.962	279.981	29.124	37.555	1.000	38.946	307.546	1.000	32.802
103.000	54.960	257.957	29.123	37.554	1.000	38.598	307.552	1.000	32.800
103.100	54.961	264.408	29.124	37.554	1.000	38.417	307.563	1.000	32.800
103.200	54.962	271.917	29.123	37.555	1.000	38.429	307.567	1.000	32.800
103.300	54.961	251.848	29.123	37.555	1.000	38.202	307.577	1.000	32.800
103.400	54.961	271.052	29.123	37.554	1.000	38.048	307.575	1.000	32.800
103.500	54.963	256.312	29.124	37.555	1.000	38.079	307.563	1.000	32.800
103.600	54.962	253.447	29.123	37.551	1.000	38.028	307.554	1.000	32.800
103.700	54.962	273.879	29.122	37.530	1.000	38.023	307.556	1.000	32.800
103.800	54.962	240.302	29.122	37.517	1.000	38.076	307.544	1.000	32.800
103.900	54.961	264.792	29.122	37.512	1.000	37.957	307.546	1.000	32.800
104.000	54.961	266.549	29.122	37.510	1.000	37.899	307.551	1.000	32.800
104.100	54.961	235.607	29.122	37.511	1.000	37.860	307.538	1.000	32.411
104.200	54.962	269.549	29.122	37.509	1.000	37.679	307.549	1.000	32.400
104.300	54.962	253.497	29.122	37.506	1.000	37.558	307.551	1.000	32.400
104.400	54.962	237.820	29.122	37.484	1.000	37.486	307.552	1.000	32.400
104.500	54.963	272.009	29.122	37.468	1.000	37.529	307.547	1.000	32.400
104.600	54.962	241.203	29.122	37.463	1.000	37.574	307.538	1.000	32.400
104.700	54.962	253.021	29.122	37.461	1.000	37.598	307.533	1.000	32.400
104.800	54.962	266.794	29.122	37.461	1.000	37.586	307.532	1.000	32.400
104.900	54.962	236.958	29.122	37.461	1.000	37.564	307.527	1.000	32.400
105.000	54.962	264.286	29.122	37.457	1.000	37.608	307.509	1.000	32.400
105.100	54.962	261.731	29.123	37.439	1.000	37.677	307.501	1.000	32.400
105.200	54.962	248.834	29.123	37.424	1.000	37.603	307.511	1.000	32.400
105.300	54.962	250.513	29.123	37.419	1.000	37.610	307.501	1.000	32.400
105.400	54.962	254.866	29.123	37.417	1.000	37.750	307.488	1.000	32.797
105.500	54.961	257.981	29.123	37.417	1.000	37.838	307.478	1.000	32.403
105.600	54.962	250.022	29.123	37.416	1.000	37.829	307.468	1.000	32.797
105.700	54.961	248.281	29.123	37.416	1.000	37.789	307.463	1.000	32.800
105.800	54.962	267.917	29.123	37.404	1.000	37.881	307.457	1.000	32.800
105.900	54.938	260.629	29.123	37.387	1.000	37.809	307.459	1.000	32.404
106.000	54.941	254.160	29.123	37.378	1.000	37.717	307.457	1.000	32.400
106.100	54.961	259.535	29.123	37.374	1.000	37.735	307.454	1.000	32.400
106.200	54.932	248.630	29.123	37.374	1.000	37.731	307.452	1.000	32.791
106.300	54.942	259.316	29.123	37.373	1.000	37.796	307.443	1.000	32.800
106.400	54.961	262.072	29.123	37.373	1.000	37.845	307.429	1.000	32.405
106.500	54.962	258.358	29.122	37.367	1.000	37.749	307.435	1.000	32.400
106.600	54.961	259.499	29.122	37.346	1.000	37.721	307.435	1.000	32.400
106.700	54.962	251.352	29.122	37.339	1.000	37.751	307.426	1.000	32.400
106.800	54.963	262.020	29.122	37.334	1.000	37.773	307.416	1.000	32.798
106.900	54.962	252.468	29.122	37.334	1.000	37.824	307.411	1.000	32.402
107.000	54.962	258.707	29.122	37.333	1.000	37.754	307.404	1.000	32.400
107.100	54.961	262.830	29.122	37.333	1.000	37.700	307.405	1.000	32.400
107.200	54.961	245.104	29.122	37.331	1.000	37.704	307.403	1.000	32.400
107.300	54.939	259.040	29.121	37.313	1.000	37.728	307.390	1.000	32.400
107.400	54.942	261.265	29.121	37.300	1.000	37.758	307.382	1.000	32.400
107.500	54.960	247.459	29.121	37.295	1.000	37.738	307.378	1.000	32.400
107.600	54.936	273.032	29.121	37.293	1.000	37.738	307.371	1.000	32.400
107.700	54.942	248.476	29.121	37.292	1.000	37.802	307.361	1.000	32.796
107.800	54.959	255.963	29.121	37.292	1.000	37.778	307.364	1.000	32.800
107.900	54.961	267.611	29.121	37.290	1.000	37.731	307.366	1.000	32.404
108.000	54.961	237.204	29.121	37.274	1.000	37.745	307.350	1.000	32.400
108.100	54.961	264.548	29.121	37.260	1.000	37.691	307.346	1.000	32.400
108.200	54.962	264.429	29.121	37.255	1.000	37.699	307.342	1.000	32.400
108.300	54.962	240.568	29.121	37.252	1.000	37.750	307.338	1.000	32.400
108.400	54.961	271.947	29.121	37.252	1.000	37.765	307.333	1.000	32.400
108.500	54.944	248.957	29.121	37.252	1.000	37.774	307.325	1.000	32.795
108.600	54.959	251.332	29.121	37.252	1.000	37.644	307.330	1.000	32.405
108.700	54.937	270.515	29.121	37.242	1.000	37.585	307.331	1.000	32.400
108.800	54.941	243.843	29.121	37.226	1.000	37.680	307.317	1.000	32.400
108.900	54.959	260.221	29.121	37.216	1.000	37.722	307.308	1.000	32.400
109.000	54.940	262.122	29.121	37.213	1.000	37.768	307.297	1.000	32.400
109.100	54.943	243.624	29.121	37.212	1.000	37.750	307.296	1.000	32.400
109.200	54.960	265.166	29.121	37.212	1.000	37.678	307.299	1.000	32.797
109.300	54.962	252.235	29.121	37.212	1.000	37.722	307.286	1.000	32.403
109.400	54.962	250.779	29.121	37.203	1.000	37.737	307.279	1.000	32.400
109.500	54.945	263.936	29.121	37.187	1.000	37.643	307.282	1.000	32.400
109.600	54.937	248.910	29.121	37.178	1.000	37.623	307.276	1.000	32.400
109.700	54.957	259.701	29.121	37.175	1.000	37.696	307.267	1.000	32.400
109.800	54.939	260.535	29.121	37.174	1.000	37.762	307.261	1.000	32.400
109.900	54.943	251.020	29.121	37.173	1.000	37.767	307.255	1.000	32.793
110.000	54.960	265.257	29.121	37.173	1.000	37.650	307.257	1.000	32.404
110.100	54.941	255.158	29.121	37.170	1.000	37.687	307.243	1.000	32.400
110.200	54.941	256.367	29.121	37.154	1.000	37.745	307.240	1.000	32.400
110.300	54.958	257.376	29.121	37.140	1.000	37.675	307.242	1.000	32.400
110.400	54.939	253.945	29.121	37.134	1.000	37.699	307.236	1.000	32.795
110.500	54.942	258.573	29.121	37.131	1.000	37.790	307.221	1.000	32.405
110.600	54.936	257.199	29.121	37.131	1.000	37.740	307.218	1.000	32.400
110.700	54.958	261.976	29.121	37.131	1.000	37.693	307.221	1.000	32.794
110.800	54.940	254.650	29.121	37.130	1.000	37.765	307.206	1.000	32.402
110.900	54.915	252.045	29.121	37.115	1.000	37.871	307.198	1.000	32.795
111.000	54.933	264.030	29.121	37.100	1.000	38.024	307.183	1.000	32.800
111.100	54.957	256.807	29.121	37.094	1.000	38.057	307.167	1.000	32.800
111.200	54.939	264.354	29.121	37.093	1.000	38.038	307.173	1.000	32.800
111.300	54.941	264.853	29.121	37.090	1.000	38.019	307.166	1.000	32.800
111.400	54.958	249.409	29.121	37.091	1.000	38.077	307.152	1.000	32.800
111.500	54.939	268.757	29.121	37.090	1.000	38.156	307.143	1.000	32.800
111.600	54.939	257.846	29.121	37.079	1.000	38.408	307.123	1.000	32.800
111.700	54.957	256.665	29.121	37.062	1.000	38.529	307.110	1.000	32.800
111.800	54.961	274.800	29.121	37.053	1.000	38.762	307.092	1.000	33.194
111.900	54.960	259.089	29.121	37.050	1.000	39.061	307.072	1.000	33.200
112.000	54.962	278.046	29.121	37.049	1.000	39.090	307.061	1.000	33.200
112.100	54.962	283.732	29.121	37.047	1.000	39.033	307.061	1.000	32.807
112.200	54.962	257.660	29.121	37.047	1.000	39.066	307.057	0.509	33.193
112.300	54.962	282.187	29.121	37.039	1.000	39.072	307.047	0.500	32.807
112.400	54.961	268.582	29.120	37.020	1.000	39.077	307.035	0.500	33.193
112.500	54.961	261.174	29.121	37.010	1.000	39.056	307.031	0.500	32.807
112.600	54.961	276.751	29.120	37.005	1.000	35.912	307.191	0.500	32.800
112.700	54.944	214.632	29.120	37.004	1.000	34.034	307.303	0.500	32.800
112.800	54.957	215.227	29.120	37.003	1.000	34.197	307.301	0.500	32.800
112.900	54.942	226.497	29.120	37.002	1.000	34.175	307.300	0.500	32.800
113.000	54.916	201.836	29.120	37.000	1.000	34.118	307.300	0.500	32.800
113.100	54.911	221.718	29.121	36.982	1.000	34.135	307.301	0.500	32.800
113.200	54.912	214.878	29.121	36.968	1.000	34.151	307.300	0.500	32.800
113.300	54.912	210.568	29.121	36.961	1.000	34.156	307.299	0.500	32.800
113.400	54.912	224.918	29.121	36.959	1.000	34.132	307.296	0.500	32.800
113.500	54.899	210.764	29.121	36.959	1.000	34.124	307.297	0.500	32.800
113.600	54.883	215.981	29.121	36.958	1.000	34.112	307.292	0.500	32.800
113.700	54.867	219.657	29.121	36.957	1.000	34.088	307.285	0.500	32.800
113.800	54.864	209.276	29.121	36.941	1.000	34.084	307.279	0.500	33.196
113.900	54.864	220.428	29.120	36.925	1.000	34.105	307.278	0.500	33.200
114.000	54.863	219.108	29.121	36.916	1.000	34.051	307.272	0.500	33.200
114.100	54.850	218.548	29.121	36.913	1.000	34.036	307.265	0.500	33.589
114.200	54.859	217.137	29.121	36.912	1.000	34.054	307.271	0.500	33.205
114.300	54.842	215.658	29.121	36.911	1.000	34.040	307.266	0.500	33.595
114.400	54.819	212.326	29.121	36.911	1.000	34.034	307.265	0.500	33.600
114.500	54.814	211.664	29.121	36.903	1.000	34.060	307.263	0.500	33.600
114.600	54.814	222.121	29.121	36.882	1.000	34.041	307.258	0.500	33.600
114.700	54.814	209.924	29.121	36.869	1.000	34.022	307.256	0.500	33.600
114.800	54.814	219.021	29.121	36.863	1.000	34.084	307.249	0.500	33.600
114.900	54.803	222.789	29.121	36.861	1.000	34.153	307.240	0.500	33.600
115.000	54.787	210.250	29.121	36.862	1.000	34.151	307.234	0.500	33.600
115.100	54.771	226.964	29.121	36.861	1.000	34.114	307.228	0.500	33.991
115.200	54.766	213.744	29.121	36.854	1.000	34.103	307.232	0.500	34.000
115.300	54.766	213.856	29.121	36.836	1.000	34.107	307.227	0.500	34.000
115.400	54.766	223.060	29.121	36.823	1.000	34.097	307.217	0.500	34.000
115.500	54.765	210.651	29.121	36.817	1.000	34.103	307.218	0.500	34.000
115.600	54.766	219.890	29.121	36.816	1.000	34.083	307.221	0.500	34.397
115.700	54.729	214.969	29.121	36.815	1.000	34.052	307.214	0.500	34.400
115.800	54.716	213.490	29.121	36.816	1.000	34.070	307.207	0.500	34.796
115.900	54.716	220.518	29.121	36.813	1.000	34.172	307.203	0.500	35.592
116.000	54.715	219.136	29.121	36.796	1.000	34.243	307.190	0.500	35.600
116.100	54.716	217.202	29.121	36.780	1.000	34.229	307.180	0.500	35.600
116.200	54.716	217.988	29.121	36.772	1.000	34.223	307.181	0.500	35.994
116.300	54.702	219.473	29.121	36.769	1.000	34.286	307.182	0.500	36.395
116.400	54.710	214.402	29.121	36.767	1.000	34.241	307.180	0.500	36.795
116.500	54.698	224.787	29.121	36.767	1.000	34.189	307.171	0.500	37.195
116.600	54.673	214.097	29.121	36.765	1.000	34.224	307.162	0.500	37.200
116.700	54.665	214.930	29.121	36.752	1.000	34.277	307.157	0.500	37.200
116.800	54.665	228.363	29.121	36.734	1.000	34.265	307.157	0.500	37.200
116.900	54.665	212.234	29.121	36.722	1.000	34.265	307.152	0.500	37.598
117.000	54.665	222.478	29.121	36.718	1.000	34.303	307.141	0.500	37.990
117.100	54.665	220.426	29.121	36.718	1.000	34.308	307.140	0.500	38.782
117.200	54.666	215.510	29.121	36.717	1.000	34.287	307.137	0.500	39.595
117.300	54.631	223.481	29.121	36.717	1.000	34.294	307.130	0.500	39.600
117.400	54.632	219.044	29.121	36.709	1.000	34.273	307.128	0.500	39.997
117.500	54.623	218.287	29.121	36.689	1.000	34.266	307.123	0.500	40.397
117.600	54.616	219.622	29.121	36.674	1.000	34.279	307.111	0.500	40.797
117.700	54.616	222.194	29.121	36.668	1.000	34.261	307.109	0.500	41.194
117.800	54.616	218.295	29.121	36.666	1.000	34.231	307.108	0.500	41.596
117.900	54.616	228.239	29.121	36.665	1.000	34.272	307.105	0.500	43.184
118.000	54.616	214.777	29.120	36.665	1.000	34.289	307.102	0.500	43.992
118.100	54.604	221.348	29.121	36.659	1.000	34.243	307.096	0.500	44.000
118.200	54.578	227.412	29.121	36.640	1.000	34.226	307.102	0.500	44.000
118.300	54.568	215.805	29.121	36.625	1.000	34.239	307.100	0.500	44.000
118.400	54.568	224.319	29.121	36.619	1.000	34.231	307.093	0.500	44.000
118.500	54.568	219.055	29.121	36.616	1.000	34.228	307.089	0.500	44.000
118.600	54.568	218.508	29.121	36.614	1.000	34.227	307.079	0.500	44.395
118.700	54.552	222.623	29.121	36.614	1.000	34.209	307.076	0.500	44.795
118.800	54.547	217.986	29.121	36.612	1.000	34.215	307.075	0.500	45.597
118.900	54.545	218.912	29.121	36.598	1.000	34.221	307.069	0.500	47.576
119.000	54.527	222.358	29.121	36.578	1.000	34.196	307.059	0.500	47.998
119.100	54.518	213.681	29.121	36.568	1.000	34.123	307.061	0.500	48.395
119.200	54.518	212.214	29.121	36.563	1.000	34.164	307.061	0.500	48.797
119.300	54.518	216.901	29.121	36.562	1.000	34.197	307.060	0.500	49.992
119.400	54.519	213.299	29.121	36.562	1.000	34.130	307.058	0.500	50.794
119.500	54.519	224.333	29.121	36.561	1.000	34.135	307.050	0.500	51.594
119.600	54.510	220.303	29.121	36.546	1.000	34.139	307.040	0.500	53.187
119.700	54.513	217.780	29.122	36.526	1.000	34.124	307.030	0.500	53.993
119.800	54.489	224.087	29.121	36.514	1.000	34.127	307.027	0.500	55.585
119.900	54.471	221.948	29.121	36.511	1.000	34.114	307.027	0.500	58.373
120.000	54.471	220.269	29.121	36.509	1.000	34.088	307.023	0.500	59.984
120.100	54.472	225.098	29.122	36.508	1.000	34.101	307.019	0.500	60.778
120.200	54.472	214.235	29.122	36.508	1.000	34.103	307.024	0.500	61.195
120.300	54.471	216.651	29.122	36.501	1.000	34.095	307.016	0.500	61.588
120.400	54.471	222.325	29.122	36.480	1.000	34.113	307.008	0.500	61.600
120.500	54.457	214.613	29.122	36.462	1.000	34.107	307.003	0.500	61.600
120.600	54.433	221.827	29.122	36.454	1.000	34.078	307.004	0.500	61.600
120.700	54.438	218.286	29.122	36.452	1.000	34.065	306.999	0.500	61.600
120.800	54.434	218.256	29.122	36.453	1.000	34.050	306.990	0.500	61.600
120.900	54.423	223.656	29.122	36.452	1.000	34.024	306.988	0.500	61.600
121.000	54.422	221.320	29.122	36.447	1.000	34.041	306.984	0.500	61.600
121.100	54.422	218.862	29.122	36.429	1.000	34.064	306.978	0.500	61.600
121.200	54.423	228.791	29.122	36.411	1.000	34.048	306.977	0.500	61.600
121.300	54.422	217.888	29.122	36.403	1.000	34.048	306.974	0.500	63.160
121.400	54.412	220.177	29.122	36.400	1.000	34.074	306.968	0.500	65.582
121.500	54.386	221.794	29.122	36.400	1.000	34.135	306.961	0.500	65.997
121.600	54.373	217.682	29.122	36.400	1.000	34.182	306.953	0.500	67.190
121.700	54.374	222.067	29.122	36.398	1.000	34.169	306.949	0.500	69.579
121.800	54.374	219.410	29.122	36.383	1.000	34.157	306.949	0.500	70.789
121.900	54.373	215.644	29.122	36.364	1.000	34.179	306.943	0.500	73.573
122.000	54.373	224.531	29.122	36.354	1.000	34.160	306.925	0.500	75.579
122.100	54.363	216.389	29.122	36.351	1.000	34.135	306.923	0.500	77.931
122.200	54.365	215.922	29.122	36.350	1.000	34.136	306.928	0.500	81.163
122.300	54.346	221.639	29.122	36.349	1.000	34.131	306.924	0.500	83.571
122.400	54.324	214.352	29.122	36.347	1.000	34.147	306.916	0.500	88.340
122.500	54.324	216.808	29.122	36.335	1.000	34.159	306.911	0.500	91.559
122.600	54.324	220.013	29.123	36.315	1.000	34.165	306.906	0.500	95.518
122.700	54.324	216.420	29.123	36.303	1.000	34.197	306.899	0.500	99.864
122.800	54.324	223.425	29.123	36.298	1.000	34.225	306.893	0.500	100.000
122.900	54.314	222.398	29.123	36.296	1.000	34.224	306.885	0.500	100.000
123.000	54.316	219.437	29.123	36.296	1.000	34.223	306.875	0.500	100.000
123.100	54.310	227.827	29.123	36.295	1.000	34.219	306.872	0.500	100.000
123.200	54.303	221.902	29.123	36.289	1.000	34.202	306.872	0.500	100.000
123.300	54.303	221.819	29.123	36.271	1.000	34.195	306.872	0.500	100.000
123.400	54.287	225.002	29.123	36.256	1.000	34.203	306.870	0.500	95.238
123.500	54.277	219.244	29.123	36.249	1.000	34.197	306.861	0.500	91.628
123.600	54.277	224.779	29.123	36.246	1.000	34.186	306.850	0.500	85.253
123.700	54.277	230.305	29.123	36.245	1.000	34.176	306.847	0.500	84.010
123.800	54.276	219.113	29.123	36.245	1.000	34.186	306.842	0.500	84.396
123.900	54.276	221.622	29.123	36.239	1.000	34.163	306.835	0.500	86.777
124.000	54.267	221.298	29.122	36.221	1.000	34.135	306.826	0.500	89.176
124.100	54.268	218.130	29.122	36.203	1.000	34.145	306.828	0.500	91.909
124.200	54.264	222.437	29.122	36.196	1.000	34.156	306.833	0.500	92.395
124.300	54.239	216.457	29.122	36.193	1.000	34.151	306.833	0.500	95.167
124.400	54.227	217.997	29.122	36.192	1.000	34.129	306.822	0.500	98.361
124.500	54.226	222.137	29.122	36.192	1.000	34.156	306.818	0.500	99.585
124.600	54.226	215.392	29.122	36.190	1.000	34.136	306.817	0.500	99.994
124.700	54.227	216.483	29.122	36.177	1.000	34.109	306.807	0.500	100.000
124.800	54.217	221.525	29.122	36.157	1.000	34.111	306.800	0.500	98.407
124.900	54.217	220.594	29.122	36.147	1.000	34.098	306.798	0.500	95.614
125.000	54.215	227.228	29.122	36.143	1.000	34.090	306.792	0.500	95.202
125.100	54.205	224.573	29.122	36.141	1.000	34.102	306.782	0.500	95.200
125.200	54.205	219.741	29.122	36.141	1.000	34.093	306.781	0.500	95.597
125.300	54.192	223.262	29.122	36.139	1.000	34.094	306.783	0.500	95.600
125.400	54.179	217.775	29.122	36.128	1.000	34.088	306.778	0.500	95.203
125.500	54.179	218.315	29.122	36.108	1.000	34.089	306.768	0.500	95.200
125.600	54.179	223.591	29.122	36.094	1.000	34.073	306.763	0.500	95.200
125.700	54.179	217.900	29.122	36.090	1.000	34.063	306.759	0.500	95.200
125.800	54.179	222.397	29.122	36.089	1.000	34.099	306.755	0.500	95.200
125.900	54.172	225.114	29.122	36.088	1.000	34.097	306.747	0.500	95.200
126.000	54.171	220.350	29.122	36.088	1.000	34.110	306.738	0.500	95.200
126.100	54.167	227.793	29.122	36.082	1.000	34.142	306.738	0.500	95.200
126.200	54.142	224.484	29.122	36.066	1.000	34.155	306.742	0.500	95.200
126.300	54.129	220.866	29.122	36.047	1.000	34.124	306.737	0.500	95.200
126.400	54.128	224.090	29.122	36.039	1.000	34.127	306.728	0.500	95.200
126.500	54.128	218.102	29.122	36.037	1.000	34.148	306.720	0.500	95.200
126.600	54.129	219.758	29.122	36.036	1.000	34.112	306.717	0.500	95.200
126.700	54.128	225.044	29.122	36.036	1.000	34.112	306.714	0.500	95.200
126.800	54.128	218.324	29.123	36.030	1.000	34.136	306.711	0.500	95.200
126.900	54.117	224.344	29.123	36.013	1.000	34.114	306.702	0.500	95.200
127.000	54.109	224.350	29.123	35.996	1.000	34.091	306.686	0.500	95.200
127.100	54.110	218.119	29.123	35.988	1.000	34.071	306.686	0.500	95.200
127.200	54.094	222.709	29.123	35.985	1.000	34.067	306.695	0.500	95.200
127.300	54.081	221.545	29.123	35.983	1.000	34.081	306.689	0.500	95.200
127.400	54.081	220.369	29.123	35.982	1.000	34.084	306.677	0.500	95.200
127.500	54.082	226.413	29.123	35.981	1.000	34.089	306.676	0.500	95.200
127.600	54.082	221.171	29.123	35.970	1.000	34.076	306.678	0.500	95.200
127.700	54.082	225.741	29.123	35.950	1.000	34.062	306.669	0.500	95.200
127.800	54.074	224.940	29.123	35.938	1.000	34.067	306.660	0.500	95.200
127.900	54.071	216.116	29.123	35.934	1.000	34.144	306.648	0.500	95.200
128.000	54.072	225.594	29.123	35.933	1.000	34.208	306.639	0.500	95.200
128.100	54.062	224.743	29.123	35.932	1.000	34.218	306.633	0.500	95.200
128.200	54.051	220.635	29.123	35.931	1.000	34.219	306.634	0.500	95.200
128.300	54.031	226.915	29.123	35.922	1.000	34.218	306.631	0.500	95.200
128.400	54.031	224.983	29.123	35.904	1.000	34.212	306.626	0.500	95.200
128.500	54.031	222.920	29.123	35.890	1.000	34.194	306.617	0.500	95.200
128.600	54.032	224.141	29.123	35.885	1.000	34.186	306.614	0.500	95.200
128.700	54.031	220.135	29.123	35.882	1.000	34.192	306.615	0.500	95.200
128.800	54.031	232.145	29.123	35.882	1.000	34.165	306.612	0.500	95.200
128.900	54.032	226.048	29.123	35.882	1.000	34.186	306.605	0.500	95.200
129.000	54.031	220.126	29.123	35.877	1.000	34.204	306.596	0.500	95.200
129.100	54.021	224.715	29.123	35.862	1.000	34.137	306.586	0.500	95.200
129.200	53.996	222.113	29.123	35.843	1.000	34.108	306.585	0.500	95.200
129.300	53.983	221.512	29.123	35.835	1.000	34.165	306.580	0.500	95.200
129.400	53.983	228.688	29.123	35.832	1.000	34.187	306.575	0.500	95.200
129.500	53.983	224.107	29.123	35.831	1.000	34.167	306.571	0.500	95.200
129.600	53.983	225.805	29.123	35.831	1.000	34.184	306.565	0.500	95.200
129.700	53.984	222.942	29.123	35.827	1.000	34.151	306.565	0.500	95.200
129.800	53.984	216.330	29.123	35.813	1.000	34.079	306.561	0.500	95.200
129.900	53.983	226.638	29.123	35.795	1.000	34.095	306.549	0.500	95.200
130.000	53.983	222.495	29.123	35.787	1.000	34.111	306.542	0.500	95.200
130.100	53.983	219.888	29.123	35.784	1.000	34.083	306.546	0.500	95.200
130.200	53.977	225.118	29.123	35.783	1.000	34.128	306.546	0.500	95.200
130.300	53.961	218.368	29.123	35.783	1.000	34.130	306.534	0.500	95.200
130.400	53.944	218.435	29.123	35.781	1.000	34.129	306.528	0.500	95.200
130.500	53.933	228.188	29.123	35.772	1.000	34.111	306.526	0.500	95.200
130.600	53.933	222.444	29.123	35.753	1.000	34.140	306.516	0.500	95.200
130.700	53.933	227.283	29.123	35.741	1.000	34.194	306.515	0.500	95.200
130.800	53.933	230.180	29.123	35.736	1.000	34.169	306.515	0.500	95.200
130.900	53.933	222.318	29.123	35.734	1.000	34.177	306.500	0.500	95.200
131.000	53.933	225.558	29.123	35.734	1.000	34.197	306.487	0.500	95.200
131.100	53.933	219.123	29.123	35.733	1.000	34.197	306.484	0.500	95.200
131.200	53.925	219.937	29.123	35.724	1.000	34.172	306.482	0.500	95.200
131.300	53.911	224.599	29.123	35.704	1.000	34.197	306.478	0.500	95.200
131.400	53.921	222.465	29.123	35.690	1.000	34.210	306.472	0.500	95.200
131.500	53.925	227.151	29.123	35.685	1.000	34.138	306.476	0.500	95.200
131.600	53.903	225.515	29.123	35.683	1.000	34.133	306.471	0.500	95.200
131.700	53.887	215.742	29.123	35.682	1.000	34.181	306.454	0.500	95.200
131.800	53.886	226.907	29.123	35.682	1.000	34.169	306.447	0.500	95.200
131.900	53.887	224.683	29.123	35.679	1.000	34.163	306.445	0.500	95.200
132.000	53.887	222.191	29.123	35.665	1.000	34.167	306.445	0.500	95.597
132.100	53.887	226.714	29.123	35.646	1.000	34.155	306.439	0.500	96.781
132.200	53.886	219.610	29.123	35.639	1.000	34.159	306.429	0.500	99.965
132.300	53.878	220.131	29.123	35.635	1.000	34.139	306.430	0.500	100.000
132.400	53.864	228.413	29.123	35.634	1.000	34.125	306.424	0.500	100.000
132.500	53.875	222.405	29.123	35.633	1.000	34.135	306.411	0.500	100.000
132.600	53.878	227.747	29.122	35.630	1.000	34.117	306.406	0.500	100.000
132.700	53.852	225.150	29.122	35.617	1.000	34.132	306.408	0.500	100.000
132.800	53.836	215.949	29.122	35.596	1.000	34.128	306.405	0.500	100.000
132.900	53.836	227.940	29.122	35.587	1.000	34.103	306.393	0.500	100.000
133.000	53.836	222.698	29.122	35.583	1.000	34.102	306.389	0.500	100.000
133.100	53.836	222.478	29.122	35.583	1.000	34.102	306.386	0.500	100.000
133.200	53.836	232.294	29.122	35.583	1.000	34.112	306.380	0.500	100.000
133.300	53.836	222.781	29.122	35.581	1.000	34.105	306.371	0.500	100.000
133.400	53.837	228.498	29.121	35.572	1.000	34.086	306.367	0.500	100.000
133.500	53.837	226.522	29.121	35.552	1.000	34.103	306.365	0.500	100.000
133.600	53.831	216.438	29.121	35.537	1.000	34.099	306.361	0.500	100.000
133.700	53.818	218.470	29.121	35.532	1.000	34.092	306.357	0.500	100.000
133.800	53.809	218.238	29.121	35.529	1.000	34.078	306.356	0.500	100.000
133.900	53.800	222.760	29.121	35.529	1.000	34.073	306.345	0.500	100.000
134.000	53.789	230.118	29.121	35.529	1.000	34.055	306.335	0.500	100.000
134.100	53.789	215.625	29.121	35.521	1.000	34.062	306.335	0.500	100.000
134.200	53.789	223.762	29.121	35.500	1.000	34.070	306.331	0.500	100.000
134.300	53.772	219.065	29.121	35.484	1.000	13.749	307.366	0.004	100.000
134.400	53.710	97.935	29.121	35.479	1.000	2.788	308.091	0.000	100.000
134.500	53.654	-141.198	29.121	35.477	1.000	2.243	308.208	0.000	100.000
134.600	53.575	-188.423	29.121	35.477	1.000	2.386	308.226	0.000	100.000
134.700	53.507	-103.754	29.121	35.476	1.000	2.382	308.250	0.000	100.000
134.800	53.429	-163.586	29.121	35.472	1.000	0.865	308.340	0.000	100.000
134.900	53.368	-174.632	29.122	35.457	1.000	0.162	308.420	0.000	100.000
135.000	53.307	-138.655	29.122	35.437	1.000	0.158	308.443	0.000	100.000
135.100	53.221	-157.416	29.122	35.429	1.000	0.159	308.457	0.000	100.000
135.200	53.159	-179.071	29.122	35.426	1.000	0.160	308.476	0.000	100.000
135.300	53.075	-144.945	29.122	35.426	1.000	0.156	308.493	0.000	100.000
135.400	53.017	-167.332	29.122	35.425	1.000	0.161	308.514	0.000	100.000
135.500	52.940	-170.524	29.122	35.422	1.000	0.161	308.524	0.000	100.000
135.600	52.880	-154.871	29.122	35.410	1.000	0.161	308.538	0.000	100.000
135.700	52.821	-166.218	29.122	35.389	1.000	0.161	308.555	0.000	100.000
135.800	52.733	-156.926	29.122	35.379	1.000	0.158	308.568	0.000	100.000
135.900	52.679	-158.548	29.122	35.376	1.000	0.158	308.580	0.000	100.000
136.000	52.601	-167.961	29.122	35.374	1.000	0.157	308.591	0.000	100.000
136.100	52.539	-158.403	29.122	35.373	1.000	0.154	308.606	0.000	100.000
136.200	52.480	-165.514	29.122	35.373	1.000	0.157	308.618	0.000	100.000
136.300	52.392	-161.974	29.122	35.364	1.000	0.159	308.625	0.000	100.000
136.400	52.301	-158.310	29.122	35.344	1.000	0.159	308.631	0.000	100.000
136.500	52.238	-165.463	29.122	35.332	1.000	0.157	308.650	0.000	100.000
136.600	52.187	-158.937	29.122	35.327	1.000	0.156	308.657	0.000	100.000
136.700	52.123	-165.571	29.122	35.326	1.000	0.158	308.660	0.000	100.000
136.800	52.029	-159.839	29.122	35.325	1.000	0.156	308.685	0.000	100.000
136.900	51.945	-159.436	29.122	35.323	1.000	0.156	308.696	0.000	100.000
137.000	51.888	-160.246	29.122	35.312	1.000	0.156	308.699	0.000	100.000
137.100	51.838	-157.408	29.122	35.295	1.000	0.154	308.705	0.000	100.000
137.200	51.768	-165.939	29.122	35.284	1.000	0.158	308.721	0.000	100.000
137.300	51.692	-159.478	29.122	35.279	1.000	0.161	308.732	0.000	100.000
137.400	51.634	-168.200	29.122	35.279	1.000	0.158	308.740	0.000	100.000
137.500	51.540	-161.062	29.122	35.279	1.000	0.156	308.745	0.000	100.000
137.600	51.479	-150.634	29.122	35.279	1.000	0.158	308.754	0.000	100.000
137.700	51.400	-170.486	29.122	35.270	1.000	0.158	308.763	0.000	100.000
137.800	51.329	-156.414	29.121	35.247	1.000	0.155	308.781	0.000	100.000
137.900	51.277	-165.690	29.121	35.238	1.000	0.157	308.794	0.000	100.000
138.000	51.195	-160.346	29.122	35.234	1.000	0.155	308.794	0.000	100.000
138.100	51.129	-161.064	29.121	35.233	1.000	0.155	308.801	0.000	100.000
138.200	51.078	-169.581	29.122	35.234	1.000	0.155	308.820	0.000	100.000
138.300	51.000	-150.728	29.121	35.231	1.000	0.158	308.828	0.000	100.000
138.400	50.932	-168.731	29.121	35.222	1.000	0.159	308.831	0.000	100.000
138.500	50.852	-163.610	29.121	35.203	1.000	0.158	308.842	0.000	100.000
138.600	50.786	-158.570	29.121	35.193	1.000	0.155	308.850	0.000	100.000
138.700	50.738	-163.840	29.121	35.188	1.000	0.158	308.851	0.000	100.000
138.800	50.661	-150.624	29.121	35.189	1.000	0.155	308.859	0.000	100.000
138.900	50.597	-172.942	29.121	35.189	1.000	0.158	308.868	0.000	100.000
139.000	50.548	-155.726	29.121	35.188	1.000	0.156	308.871	0.000	100.000
139.100	50.482	-163.224	29.121	35.185	1.000	0.157	308.883	0.000	100.000
139.200	50.400	-168.364	29.121	35.164	1.000	0.161	308.900	0.000	100.000
139.300	50.319	-148.679	29.121	35.151	1.000	0.158	308.906	0.000	100.000
139.400	50.271	-168.898	29.121	35.145	1.000	0.158	308.913	0.000	100.000
139.500	50.206	-151.650	29.121	35.143	1.000	0.159	308.920	0.000	100.000
139.600	50.156	-166.661	29.121	35.142	1.000	0.155	308.924	0.000	96.450
139.700	50.074	-164.957	29.121	35.143	1.000	0.156	308.933	0.000	72.584
139.800	50.005	-154.186	29.121	35.141	1.000	0.155	308.942	0.000	36.978
139.900	49.950	-173.074	29.121	35.123	1.000	0.160	308.944	0.000	2.432
140.000	49.869	-150.515	29.121	35.108	1.000	0.154	308.947	0.000	0.012
140.100	49.803	-164.343	29.121	35.102	1.000	0.153	308.959	0.000	0.000
140.200	49.753	-157.851	29.121	35.099	1.000	0.160	308.974	0.000	0.000
140.300	49.693	-161.705	29.121	35.098	1.000	0.160	308.985	0.000	0.000
140.400	49.623	-165.951	29.121	35.098	1.000	0.158	308.987	0.000	0.000
140.500	49.529	-148.496	29.121	35.097	1.000	0.155	308.992	0.000	0.000
140.600	49.479	-176.737	29.121	35.088	1.000	0.155	308.997	0.000	0.000
140.700	49.415	-153.545	29.121	35.066	1.000	0.155	308.996	0.000	0.000
140.800	49.367	-164.846	29.121	35.058	1.000	0.156	309.005	0.000	0.000
140.900	49.318	-155.739	29.121	35.054	1.000	0.156	309.018	0.000	0.000
141.000	49.221	-152.881	29.121	35.053	1.000	0.152	309.020	0.000	0.000
141.100	49.172	-171.078	29.121	35.052	1.000	0.154	309.026	0.000	0.000
141.200	49.092	-172.210	29.121	35.052	1.000	0.164	309.037	0.000	0.000
141.300	49.026	-299.363	29.121	35.046	1.000	0.169	309.044	0.000	0.000
141.400	48.932	-357.938	29.121	35.026	1.000	0.171	309.053	0.000	0.000
141.500	48.837	-378.113	29.121	35.016	1.000	0.165	309.055	0.000	0.000
141.600	48.735	-378.261	29.121	35.012	1.000	0.165	309.061	0.000	0.000
141.700	48.636	-411.914	29.121	35.010	1.000	0.165	309.065	0.000	0.000
141.800	48.540	-446.026	29.121	35.010	1.000	0.166	309.075	0.000	0.000
141.900	48.410	-411.971	29.121	35.010	1.000	0.167	309.083	0.000	0.000
142.000	48.296	-437.200	29.121	35.007	1.000	0.165	309.084	0.000	0.000
142.100	48.204	-435.784	29.121	34.992	1.000	0.166	309.089	0.000	0.000
142.200	48.102	-449.127	29.121	34.976	1.000	0.166	309.105	0.000	0.000
142.300	48.005	-430.149	29.121	34.970	1.000	0.168	309.117	0.000	0.000
142.400	47.893	-422.071	29.121	34.968	1.000	0.168	309.119	0.000	0.000
142.500	47.765	-428.678	29.121	34.968	1.000	0.169	309.122	0.000	0.000
142.600	47.667	-420.891	29.121	34.967	1.000	0.167	309.123	0.000	0.000
142.700	47.568	-458.160	29.121	34.965	1.000	0.164	309.133	0.000	0.000
142.800	47.441	-451.699	29.120	34.949	1.000	0.164	309.141	0.000	0.000
142.900	47.325	-486.074	29.120	34.935	1.000	0.166	309.145	0.000	0.000
143.000	47.209	-493.058	29.120	34.929	1.000	0.163	309.149	0.000	0.000
143.100	47.082	-554.055	29.121	34.926	1.000	0.163	309.155	0.000	0.000
143.200	46.965	-585.064	29.120	34.926	1.000	0.169	309.166	0.000	0.000
143.300	46.822	-612.911	29.120	34.926	1.000	0.169	309.170	0.000	0.000
143.400	46.677	-647.378	29.120	34.925	1.000	0.166	309.177	0.000	0.000
143.500	46.532	-645.748	29.120	34.916	1.000	0.162	309.176	0.000	0.000
143.600	46.381	-697.999	29.120	34.899	1.000	0.165	309.191	0.000	0.000
143.700	46.243	-699.282	29.120	34.891	1.000	0.168	309.193	0.000	0.000
143.800	46.066	-752.425	29.120	34.888	1.000	0.167	309.196	0.000	0.000
143.900	45.915	-742.800	29.120	34.888	1.000	0.164	309.201	0.000	0.000
144.000	45.755	-785.676	29.120	34.887	1.000	0.166	309.201	0.000	0.000
144.100	45.578	-782.503	29.120	34.886	1.000	0.162	309.211	0.000	0.000
144.200	45.408	-812.071	29.120	34.881	1.000	0.163	309.221	0.000	0.000
144.300	45.257	-798.982	29.119	34.866	1.000	0.169	309.226	0.000	0.000
144.400	45.068	-811.130	29.120	34.856	1.000	0.168	309.233	0.000	0.000
144.500	44.916	-813.386	29.120	34.852	1.000	0.167	309.238	0.000	0.000
144.600	44.729	-820.373	29.120	34.851	1.000	0.170	309.239	0.000	0.000
144.700	44.578	-835.610	29.120	34.850	1.000	0.164	309.250	0.000	0.000
144.800	44.387	-841.840	29.120	34.850	1.000	0.164	309.245	0.000	0.000
144.900	44.237	-876.224	29.119	34.849	1.000	0.165	309.247	0.000	0.000
145.000	44.045	-883.011	29.119	34.837	1.000	0.161	309.251	0.000	0.000
145.100	43.849	-908.719	29.119	34.827	1.000	0.166	309.264	0.000	0.000
145.200	43.655	-909.101	29.119	34.823	1.000	0.168	309.275	0.000	0.000
145.300	43.465	-970.648	29.119	34.822	1.000	0.170	309.286	0.000	0.000
145.400	43.278	-997.759	29.119	34.821	1.000	0.167	309.283	0.000	0.000
145.500	43.083	-1049.310	29.119	34.821	1.000	0.168	309.288	0.000	0.000
145.600	42.879	-1028.551	29.119	34.820	1.000	0.168	309.294	0.000	0.000
145.700	42.657	-1055.999	29.119	34.810	1.000	0.169	309.289	0.000	0.000
145.800	42.454	-1036.523	29.119	34.799	1.000	0.164	309.296	0.000	0.000
145.900	42.256	-1062.309	29.119	34.793	1.000	0.167	309.304	0.000	0.000
146.000	42.049	-1044.250	29.119	34.791	1.000	0.160	309.313	0.000	0.000
146.100	41.824	-1078.385	29.119	34.791	1.000	0.165	309.320	0.000	0.000
146.200	41.623	-1064.635	29.119	34.790	1.000	0.169	309.331	0.000	0.000
146.300	41.416	-1093.861	29.119	34.791	1.000	0.168	309.337	0.000	0.000
146.400	41.193	-1085.813	29.119	34.786	1.000	0.167	309.344	0.000	0.000
146.500	40.981	-1121.994	29.119	34.774	1.000	0.168	309.346	0.000	0.000
146.600	40.749	-1158.898	29.119	34.767	1.000	0.166	309.349	0.000	0.000
146.700	40.511	-1240.333	29.119	34.765	1.000	0.163	309.350	0.000	0.000
146.800	40.294	-1272.576	29.119	34.763	1.000	0.165	309.353	0.000	0.000
146.900	40.057	-1279.345	29.119	34.762	1.000	0.169	309.356	0.000	0.000
147.000	39.819	-1286.811	29.119	34.762	1.000	0.162	309.356	0.000	0.000
147.100	39.547	-1280.904	29.119	34.758	1.000	0.161	309.368	0.000	0.000
147.200	39.293	-1303.127	29.119	34.747	1.000	0.170	309.383	0.000	0.000
147.300	39.050	-1287.241	29.119	34.739	1.000	0.169	309.389	0.000	0.000
147.400	38.806	-1315.524	29.119	34.736	1.000	0.167	309.391	0.000	0.000
147.500	38.563	-1289.004	29.119	34.735	1.000	0.167	309.401	0.000	0.000
147.600	38.317	-1314.232	29.119	34.735	1.000	0.168	309.401	0.000	0.000
147.700	38.062	-1292.867	29.119	34.736	1.000	0.166	309.394	0.000	0.000
147.800	37.831	-1329.977	29.119	34.734	1.000	0.163	309.396	0.000	0.000
147.900	37.568	-1313.779	29.119	34.724	1.000	0.162	309.406	0.000	0.000
148.000	37.319	-1326.339	29.119	34.717	1.000	0.166	309.413	0.000	0.000
148.100	37.073	-1339.465	29.119	34.714	1.000	0.167	309.414	0.000	0.000
148.200	36.805	-1329.333	29.119	34.712	1.000	0.166	309.426	0.000	0.000
148.300	36.552	-1365.303	29.119	34.712	1.000	0.165	309.434	0.000	0.000
148.400	36.301	-1338.825	29.119	34.712	1.000	0.166	309.438	0.000	0.000
148.500	36.051	-1375.973	29.119	34.711	1.000	0.166	309.448	0.000	0.000
148.600	35.810	-1356.852	29.119	34.703	1.000	0.167	309.458	0.000	0.000
148.700	35.568	-1376.786	29.118	34.693	1.000	0.167	309.456	0.000	0.000
148.800	35.296	-1391.754	29.118	34.689	1.000	0.167	309.458	0.000	0.000
148.900	35.028	-1375.836	29.118	34.686	1.000	0.166	309.461	0.000	0.000
149.000	34.789	-1407.073	29.119	34.686	1.000	0.167	309.458	0.000	0.000
149.100	34.545	-1371.871	29.118	34.687	1.000	0.165	309.466	0.000	0.000
149.200	34.272	-1403.655	29.118	34.687	1.000	0.165	309.480	0.000	0.000
149.300	34.009	-1407.656	29.118	34.682	1.000	0.166	309.477	0.000	0.000
149.400	33.733	-1398.497	29.118	34.673	1.000	0.166	309.484	0.000	0.000
149.500	33.489	-1433.955	29.118	34.668	1.000	0.168	309.492	0.000	0.000
149.600	33.230	-1400.615	29.118	34.666	1.000	0.166	309.494	0.000	0.000
149.700	32.986	-1427.410	29.118	34.666	1.000	0.168	309.496	0.000	0.000
149.800	32.712	-1432.885	29.118	34.665	1.000	0.168	309.505	0.000	0.000
149.900	32.451	-1417.223	29.118	34.664	1.000	0.165	309.511	0.000	0.000
150.000	32.208	-1459.895	29.117	34.662	1.000	0.165	309.504	0.000	0.000
150.100	31.927	-1439.286	29.117	34.654	1.000	0.166	309.507	0.000	0.000
150.200	31.648	-1446.617	29.117	34.648	1.000	0.168	309.514	0.000	0.000
150.300	31.380	-1478.218	29.117	34.646	1.000	0.169	309.525	0.000	0.000
150.400	31.130	-1451.932	29.117	34.646	1.000	0.168	309.531	0.000	0.000
150.500	30.856	-1487.043	29.117	34.645	1.000	0.167	309.533	0.000	0.000
150.600	30.603	-1502.300	29.117	34.644	1.000	0.166	309.539	0.000	0.000
150.700	30.313	-1482.922	29.117	34.644	1.000	0.166	309.547	0.000	0.000
150.800	30.055	-1524.240	29.117	34.639	1.000	0.166	309.550	0.000	0.000
150.900	29.775	-1528.928	29.117	34.635	1.000	0.169	309.548	0.000	0.000
151.000	29.482	-1526.594	29.117	34.632	1.000	0.165	309.541	0.000	0.000
151.100	29.225	-1569.051	29.117	34.631	1.000	0.163	309.555	0.000	0.000
151.200	28.956	-1565.463	29.116	34.630	1.000	0.165	309.563	0.000	0.000
151.300	28.657	-1572.995	29.117	34.631	1.000	0.165	309.562	0.000	0.000
151.400	28.362	-1614.073	29.116	34.631	1.000	0.167	309.564	0.000	0.000
151.500	28.069	-1600.011	29.116	34.627	1.000	0.167	309.580	0.000	0.000
151.600	27.778	-1603.752	29.116	34.624	1.000	0.164	309.586	0.000	0.000
151.700	27.486	-1639.634	29.116	34.622	1.000	0.168	309.585	0.000	0.000
151.800	27.198	-1634.166	29.116	34.620	1.000	0.167	309.587	0.000	0.000
151.900	26.904	-1651.313	29.116	34.620	1.000	0.165	309.593	0.000	0.000
152.000	26.621	-1715.815	29.116	34.621	1.000	0.166	309.592	0.000	0.000
152.100	26.294	-1737.710	29.116	34.620	1.000	0.165	309.589	0.000	0.000
152.200	25.986	-1734.600	29.116	34.618	1.000	0.168	309.603	0.000	0.000
152.300	25.687	-1776.936	29.116	34.617	1.000	0.168	309.610	0.000	0.000
152.400	25.366	-1805.553	29.116	34.614	1.000	0.167	309.620	0.000	0.000
152.500	25.050	-1799.220	29.116	34.613	1.000	0.168	309.618	0.000	0.000
152.600	24.730	-1859.139	29.116	34.613	1.000	0.167	309.622	0.000	0.000
152.700	24.396	-1915.015	29.116	34.613	1.000	0.165	309.628	0.000	0.000
152.800	24.056	-1918.842	29.116	34.613	1.000	0.167	309.628	0.000	0.000
152.900	23.719	-1933.397	29.115	34.612	1.000	0.169	309.635	0.000	0.000
153.000	23.367	-1968.558	29.115	34.611	1.000	0.165	309.632	0.000	0.000
153.100	23.015	-1993.136	29.115	34.612	1.000	0.165	309.628	0.000	0.000
153.200	22.675	-1978.782	29.115	34.611	1.000	0.168	309.639	0.000	0.000
153.300	22.336	-2014.047	29.115	34.611	1.000	0.165	309.647	0.000	0.000
153.400	21.973	-2045.219	29.115	34.611	1.000	0.164	309.647	0.000	0.000
153.500	21.619	-2056.204	29.115	34.611	1.000	0.168	309.656	0.000	0.000
153.600	21.244	-2059.363	29.115	34.611	1.000	0.167	309.665	0.000	0.000
153.700	20.883	-2127.245	29.114	34.612	1.000	0.168	309.666	0.000	0.000
153.800	20.499	-2190.030	29.114	34.613	1.000	0.168	309.666	0.000	0.000
153.900	20.107	-2226.466	29.114	34.613	1.000	0.168	309.666	0.000	0.000
154.000	19.718	-2234.791	29.114	34.613	1.000	0.165	309.673	0.000	0.000
154.100	19.330	-2280.206	29.114	34.613	1.000	0.166	309.683	0.000	0.000
154.200	18.940	-2305.365	29.114	34.614	1.000	0.167	309.688	0.000	0.000
154.300	18.554	-2321.400	29.114	34.614	1.000	0.168	309.692	0.000	0.000
154.400	18.133	-2315.287	29.113	34.616	1.000	0.167	309.700	0.000	0.000
154.500	17.730	-2330.511	29.113	34.618	1.000	0.167	309.701	0.000	0.000
154.600	17.347	-2358.299	29.113	34.619	1.000	0.166	309.702	0.000	0.000
154.700	16.941	-2367.748	29.113	34.620	1.000	0.169	309.701	0.000	0.000
154.800	16.528	-2379.083	29.113	34.619	1.000	0.170	309.704	0.000	0.000
154.900	16.122	-2368.368	29.113	34.620	1.000	0.167	309.707	0.000	0.000
155.000	15.699	-2384.985	29.113	34.621	1.000	0.166	309.705	0.000	0.000
155.100	15.278	-2417.110	29.113	34.622	1.000	0.163	309.714	0.000	0.000
155.200	14.860	-2421.913	29.112	34.626	1.000	0.167	309.723	0.000	0.000
155.300	14.451	-2443.693	29.112	34.630	1.000	0.169	309.729	0.000	0.000
155.400	14.036	-2442.427	29.112	34.631	1.000	0.167	309.728	0.000	0.000
155.500	13.600	-2442.986	29.112	34.631	1.000	0.172	309.734	0.000	0.000
155.600	13.187	-2475.072	29.112	34.633	1.000	0.169	309.736	0.000	0.000
155.700	12.769	-2495.592	29.112	34.633	1.000	0.165	309.735	0.000	0.000
155.800	12.329	-2507.905	29.112	34.634	1.000	0.169	309.741	0.000	0.000
155.900	11.889	-2524.205	29.111	34.640	1.000	0.168	309.744	0.000	0.000
156.000	11.448	-2528.265	29.111	34.645	1.000	0.166	309.744	0.000	0.000
156.100	11.034	-2537.660	29.111	34.647	1.000	0.167	309.753	0.000	0.000
156.200	10.607	-2558.804	29.111	34.647	1.000	0.170	309.766	0.000	0.000
156.300	10.168	-2568.080	29.111	34.647	1.000	0.167	309.771	0.000	0.000
156.400	9.710	-2584.689	29.111	34.648	1.000	0.163	309.776	0.000	0.000
156.500	9.261	-2632.722	29.111	34.648	1.000	0.167	309.770	0.000	0.000
156.600	8.811	-2668.216	29.111	34.653	1.000	0.167	309.768	0.000	0.000
156.700	8.376	-2677.267	29.111	34.660	1.000	0.167	309.778	0.000	0.000
156.800	7.917	-2699.959	29.111	34.665	1.000	0.166	309.785	0.000	0.000
156.900	7.449	-2748.273	29.111	34.666	1.000	0.166	309.785	0.000	0.000
157.000	6.972	-2786.600	29.111	34.666	1.000	0.169	309.781	0.000	0.000
157.100	6.484	-2790.766	29.111	34.667	1.000	0.168	309.781	0.000	0.000
157.200	6.000	-2792.595	29.111	34.668	1.000	0.171	309.790	0.000	0.000
157.300	5.534	-2812.286	29.110	34.673	1.000	0.168	309.795	0.000	0.000
157.400	5.058	-2846.584	29.110	34.683	1.000	0.163	309.797	0.000	0.000
157.500	4.572	-2899.740	29.110	34.688	1.000	0.167	309.801	0.000	0.000
157.600	4.086	-2933.423	29.110	34.691	1.000	0.169	309.804	0.000	0.000
157.700	3.571	-2936.142	29.110	34.692	1.000	0.164	309.808	0.000	0.000
157.800	3.064	-2943.450	29.110	34.691	1.000	0.162	309.815	0.000	0.000
157.900	2.578	-2948.345	29.110	34.690	1.000	0.165	309.816	0.000	0.000
158.000	2.086	-2940.370	29.110	34.695	1.000	0.172	309.818	0.000	0.000
158.100	1.597	-2933.903	29.110	34.706	1.000	0.175	309.824	0.000	0.000
158.200	1.086	-2933.954	29.110	34.714	1.000	0.172	309.834	0.000	0.000
158.300	0.588	-2928.238	29.110	34.718	1.000	0.167	309.839	0.000	0.000
158.400	0.158	-1323.451	29.110	34.719	1.000	0.162	309.833	0.000	0.000
158.500	-0.143	-40.411	29.110	34.719	1.000	0.161	309.834	0.000	0.000
158.600	-0.182	-193.555	29.110	34.719	1.000	0.149	308.845	0.000	0.000
158.700	-0.041	-146.055	29.109	34.722	1.000	0.139	284.161	0.000	0.000
158.800	0.091	9.525	29.109	34.735	1.000	0.139	238.493	0.000	0.000
158.900	0.088	7.016	29.109	34.747	1.000	0.139	194.597	0.000	0.000
159.000	-0.039	-12.228	29.109	34.752	1.000	0.139	158.690	0.000	0.000
159.100	-0.098	-12.286	29.109	34.754	1.000	0.140	129.288	0.000	0.000
159.200	-0.026	-12.203	29.109	34.755	1.000	0.142	104.999	0.000	0.000
159.300	0.043	-12.207	29.109	34.755	1.000	0.142	84.922	0.000	0.000
159.400	0.036	-12.459	29.109	34.756	1.000	0.138	68.623	0.000	0.000
159.500	-0.029	-12.397	29.108	34.766	1.000	0.137	55.536	0.000	0.000
159.600	-0.058	-12.266	29.108	34.781	1.000	0.137	45.148	0.000	0.000
159.700	-0.012	-12.319	29.108	34.789	1.000	0.137	37.049	0.000	0.000
159.800	0.035	-12.318	29.108	34.792	1.000	0.137	30.567	0.000	0.000
159.900	0.027	-12.300	29.108	34.793	1.000	0.136	25.290	0.000	0.000
160.000	-0.021	-12.208	29.108	34.793	1.000	0.136	20.931	0.000	0.000
160.100	-0.041	-12.230	29.108	34.794	1.000	0.137	17.354	0.000	0.000
160.200	-0.010	-12.373	29.108	34.806	1.000	0.140	14.448	0.000	0.000
160.300	0.010	-12.335	29.108	34.824	1.000	0.140	12.061	0.000	0.000
160.400	0.010	-12.408	29.108	34.835	1.000	0.138	10.097	0.000	0.000
160.500	-0.019	-12.377	29.108	34.838	1.000	0.137	8.495	0.000	0.000
160.600	-0.021	-12.315	29.108	34.840	1.000	0.135	7.131	0.000	0.000
160.700	0.010	-12.337	29.108	34.841	1.000	0.135	6.006	0.000	0.000
160.800	0.009	-12.264	29.108	34.842	1.000	0.135	5.097	0.000	0.000
160.900	0.009	-12.193	29.108	34.848	1.000	0.152	4.345	0.000	0.000
161.000	0.010	-12.190	29.107	34.864	1.000	0.157	3.728	0.000	0.000
161.100	0.010	-12.353	29.107	34.880	1.000	0.151	3.216	0.000	0.000
161.200	0.009	-12.443	29.107	34.886	1.000	0.154	2.794	0.000	0.000
161.300	0.009	-12.512	29.107	34.888	1.000	0.157	2.452	0.000	0.000
161.400	0.010	-12.416	29.107	34.889	1.000	0.148	2.162	0.000	0.000
161.500	0.009	-12.142	29.107	34.889	1.000	0.135	1.915	0.000	0.000
161.600	0.009	-12.151	29.107	34.894	1.000	0.131	1.767	0.000	0.000
161.700	0.009	-12.349	29.107	34.910	1.000	0.131	1.761	0.000	0.000
161.800	0.009	-12.444	29.106	34.929	1.000	0.132	1.818	0.000	0.000
161.900	0.009	-12.326	29.106	34.936	1.000	0.132	1.874	0.000	0.000
162.000	0.009	-12.158	29.107	34.938	1.000	0.128	1.924	0.000	0.000
162.100	0.009	-12.153	29.107	34.939	1.000	0.128	1.975	0.000	0.000
162.200	0.009	-12.258	29.107	34.940	1.000	0.131	2.037	0.000	0.000
162.300	0.010	-12.369	29.106	34.942	1.000	0.132	2.094	0.000	0.000
162.400	0.010	-12.392	29.106	34.954	1.000	0.133	2.139	0.000	0.000
162.500	0.009	-12.372	29.106	34.974	1.000	0.136	2.179	0.000	0.000
162.600	0.009	-12.420	29.106	34.987	1.000	0.135	2.227	0.000	0.000
162.700	0.009	-12.386	29.106	34.992	1.000	0.127	2.277	0.000	0.000
162.800	0.009	-12.216	29.106	34.993	1.000	0.123	2.323	0.000	0.000
162.900	0.009	-12.108	29.106	34.994	1.000	0.119	2.363	0.000	0.000
163.000	0.010	-12.144	29.106	34.994	1.000	0.117	2.400	0.000	0.000
163.100	0.009	-12.295	29.106	35.006	1.000	0.120	2.437	0.000	0.000
163.200	0.009	-12.367	29.106	35.029	1.000	0.123	2.481	0.000	0.000
163.300	0.010	-12.345	29.106	35.044	1.000	0.124	2.531	0.000	0.000
163.400	0.009	-12.312	29.106	35.049	1.000	0.123	2.568	0.000	0.000
163.500	0.009	-12.341	29.106	35.051	1.000	0.123	2.602	0.000	0.000
163.600	0.010	-12.300	29.106	35.051	1.000	0.121	2.639	0.000	0.000
163.700	0.010	-12.272	29.106	35.051	1.000	0.121	2.678	0.000	0.000
163.800	0.010	-12.293	29.106	35.056	1.000	0.120	2.716	0.000	0.000
163.900	0.009	-12.319	29.106	35.075	1.000	0.117	2.751	0.000	0.000
164.000	0.009	-12.237	29.105	35.094	1.000	0.115	2.788	0.000	0.000
164.100	0.009	-12.300	29.105	35.103	1.000	0.117	2.825	0.000	0.000
164.200	0.009	-12.330	29.105	35.106	1.000	0.120	2.862	0.000	0.000
164.300	0.010	-12.313	29.105	35.107	1.000	0.120	2.898	0.000	0.000
164.400	0.010	-12.257	29.105	35.108	1.000	0.122	2.925	0.000	0.000
164.500	0.010	-12.243	29.105	35.112	1.000	0.124	2.964	0.000	0.000
164.600	0.009	-12.243	29.105	35.129	1.000	0.121	2.994	0.000	0.000
164.700	0.009	-12.428	29.105	35.151	1.000	0.118	3.021	0.000	0.000
164.800	0.010	-12.476	29.105	35.160	1.000	0.120	3.060	0.000	0.000
164.900	0.010	-12.450	29.105	35.164	1.000	0.120	3.090	0.000	0.000
165.000	0.009	-12.376	29.105	35.166	1.000	0.118	3.116	0.000	0.000
165.100	0.009	-12.170	29.105	35.166	1.000	0.119	3.143	0.000	0.000
165.200	0.009	-12.234	29.105	35.168	1.000	0.121	3.178	0.000	0.000
165.300	0.010	-12.287	29.105	35.180	1.000	0.123	3.216	0.000	0.000
165.400	0.010	-12.278	29.105	35.204	1.000	0.120	3.241	0.000	0.000
165.500	0.009	-12.354	29.105	35.218	1.000	0.119	3.273	0.000	0.000
165.600	0.009	-12.404	29.105	35.223	1.000	0.120	3.303	0.000	0.000
165.700	0.010	-12.282	29.105	35.225	1.000	0.120	3.323	0.000	0.000
165.800	0.010	-12.258	29.105	35.226	1.000	0.120	3.350	0.000	0.000
165.900	0.010	-12.347	29.105	35.227	1.000	0.119	3.379	0.000	0.000
166.000	0.010	-12.313	29.105	35.237	1.000	0.116	3.409	0.000	0.000
166.100	0.009	-12.257	29.105	35.261	1.000	0.118	3.431	0.000	0.000
166.200	0.009	-12.212	29.105	35.278	1.000	0.121	3.474	0.000	0.000
166.300	0.009	-12.320	29.105	35.283	1.000	0.121	3.511	0.000	0.000
166.400	0.010	-12.215	29.105	35.285	1.000	0.122	3.533	0.000	0.000
166.500	0.010	-12.167	29.105	35.285	1.000	0.123	3.562	0.000	0.000
166.600	0.009	-12.207	29.105	35.285	1.000	0.123	3.580	0.000	0.000
166.700	0.009	-12.385	29.105	35.290	1.000	0.122	3.605	0.000	0.000
166.800	0.009	-12.433	29.105	35.309	1.000	0.119	3.634	0.000	0.000
166.900	0.009	-12.417	29.105	35.331	1.000	0.117	3.653	0.000	0.000
167.000	0.009	-12.349	29.105	35.340	1.000	0.117	3.673	0.000	0.000
167.100	0.010	-12.361	29.105	35.344	1.000	0.117	3.708	0.000	0.000
167.200	0.010	-12.252	29.105	35.344	1.000	0.120	3.732	0.000	0.000
167.300	0.009	-12.336	29.105	35.344	1.000	0.120	3.755	0.000	0.000
167.400	0.009	-12.313	29.105	35.348	1.000	0.121	3.787	0.000	0.000
167.500	0.010	-12.349	29.105	35.364	1.000	0.122	3.813	0.000	0.000
167.600	0.010	-12.217	29.105	35.387	1.000	0.119	3.835	0.000	0.000
167.700	0.009	-12.262	29.105	35.398	1.000	0.118	3.857	0.000	0.000
167.800	0.009	-12.386	29.105	35.401	1.000	0.120	3.882	0.000	0.000
167.900	0.009	-12.336	29.105	35.402	1.000	0.118	3.900	0.000	0.000
168.000	0.009	-12.284	29.105	35.402	1.000	0.117	3.922	0.000	0.000
168.100	0.009	-12.233	29.105	35.403	1.000	0.119	3.944	0.000	0.000
168.200	0.010	-12.363	29.105	35.414	1.000	0.121	3.964	0.000	0.000
168.300	0.010	-12.242	29.105	35.437	1.000	0.119	3.989	0.000	0.000
168.400	0.009	-12.303	29.105	35.453	1.000	0.120	4.010	0.000	0.000
168.500	0.009	-12.455	29.105	35.459	1.000	0.122	4.030	0.000	0.000
168.600	0.010	-12.293	29.105	35.461	1.000	0.123	4.050	0.000	0.000
168.700	0.009	-12.380	29.105	35.461	1.000	0.119	4.072	0.000	0.000
168.800	0.009	-12.261	29.105	35.462	1.000	0.121	4.100	0.000	0.000
168.900	0.009	-12.314	29.105	35.471	1.000	0.120	4.121	0.000	0.000
169.000	0.010	-12.264	29.104	35.493	1.000	0.116	4.133	0.000	0.000
169.100	0.010	-12.295	29.105	35.509	1.000	0.116	4.150	0.000	0.000
169.200	0.010	-12.352	29.105	35.516	1.000	0.122	4.189	0.000	0.000
169.300	0.009	-12.261	29.104	35.518	1.000	0.122	4.214	0.000	0.000
169.400	0.010	-12.216	29.105	35.518	1.000	0.120	4.232	0.000	0.000
169.500	0.010	-12.399	29.105	35.519	1.000	0.119	4.254	0.000	0.000
169.600	0.009	-12.383	29.104	35.523	1.000	0.119	4.275	0.000	0.000
169.700	0.010	-12.408	29.105	35.539	1.000	0.119	4.294	0.000	0.000
169.800	0.010	-12.369	29.105	35.561	1.000	0.120	4.311	0.000	0.000
169.900	0.010	-12.333	29.105	35.570	1.000	0.120	4.329	0.000	0.000
170.000	0.009	-12.446	29.105	35.572	1.000	0.115	4.351	0.000	0.000
170.100	0.009	-12.322	29.105	35.572	1.000	0.117	4.366	0.000	0.000
170.200	0.010	-12.480	29.105	35.574	1.000	0.121	4.389	0.000	0.000
170.300	0.010	-12.435	29.104	35.577	1.000	0.122	4.408	0.000	0.000
170.400	0.010	-12.362	29.104	35.591	1.000	0.120	4.429	0.000	0.000
170.500	0.009	-12.471	29.104	35.613	1.000	0.118	4.449	0.000	0.000
170.600	0.009	-12.220	29.104	35.623	1.000	0.120	4.469	0.000	0.000
170.700	0.009	-12.264	29.104	35.627	1.000	0.120	4.491	0.000	0.000
170.800	0.009	-12.453	29.104	35.628	1.000	0.117	4.509	0.000	0.000
170.900	0.010	-12.372	29.105	35.628	1.000	0.119	4.527	0.000	0.000
171.000	0.010	-12.372	29.105	35.628	1.000	0.118	4.546	0.000	0.000
171.100	0.010	-12.372	29.105	35.628	1.000	0.118	4.552	0.000	0.000
171.200	0.010	-12.372	29.105	35.628	1.000	0.118	4.552	0.000	0.000
171.300	0.010	-12.372	29.105	35.628	1.000	0.118	4.552	0.000	0.000
171.400	0.010	-12.372	29.105	35.628	1.000	0.118	4.552	0.000	0.000
171.500	0.010	-12.372	29.105	35.628	1.000	0.118	4.552	0.000	0.000
171.600	0.010	-12.372	29.105	35.628	1.000	0.118	4.552	0.000	0.000
171.700	0.010	-12.372	29.105	35.628	1.000	0.118	4.552	0.000	0.000
171.800	0.010	-12.372	29.105	35.628	1.000	0.118	4.552	0.000	0.000
171.900	0.010	-12.372	29.105	35.628	1.000	0.118	4.552	0.000	0.000
172.000	0.010	-12.372	29.105	35.628	1.000	0.118	4.552	0.000	0.000
172.100	0.010	-12.372	29.105	35.628	1.000	0.118	4.552	0.000	0.000
172.200	0.010	-12.372	29.105	35.628	1.000	0.118	4.552	0.000	0.000
172.300	0.010	-12.372	29.105	35.628	1.000	0.118	4.552	0.000	0.000
172.400	0.010	-12.372	29.105	35.628	1.000	0.118	4.552	0.000	0.000
172.500	0.010	-12.372	29.105	35.628	1.000	0.118	4.552	0.000	0.000
172.600	0.010	-12.372	29.105	35.628	1.000	0.118	4.552	0.000	0.000
172.700	0.010	-12.372	29.105	35.628	1.000	0.118	4.552	0.000	0.000
172.800	0.010	-12.372	29.105	35.628	1.000	0.118	4.552	0.000	0.000
172.900	0.010	-12.372	29.105	35.628	1.000	0.118	4.552	0.000	0.000
173.000	0.010	-12.372	29.105	35.628	1.000	0.118	4.552	0.000	0.000
173.100	0.010	-12.372	29.105	35.628	1.000	0.118	4.552	0.000	0.000
173.200	0.010	-12.372	29.105	35.628	1.000	0.118	4.552	0.000	0.000
173.300	0.010	-12.372	29.105	35.628	1.000	0.118	4.552	0.000	0.000
173.400	0.010	-12.372	29.105	35.628	1.000	0.118	4.552	0.000	0.000
173.500	0.010	-12.372	29.105	35.628	1.000	0.118	4.552	0.000	0.000
173.600	0.010	-12.372	29.105	35.628	1.000	0.118	4.552	0.000	0.000
173.700	0.010	-12.372	29.105	35.628	1.000	0.118	4.552	0.000	0.000
173.800	0.010	-12.372	29.105	35.628	1.000	0.118	4.552	0.000	0.000
173.900	0.010	-12.372	29.105	35.628	1.000	0.118	4.552	0.000	0.000
174.000	0.010	-12.372	29.105	35.628	1.000	0.118	4.552	0.000	0.000
