Time[sec]	Dyno_Speed[mph]	Dyno_Tractive_Effort[N]	Test_Cell_Temp[C]	Test_Cell_RH[%]	Phase_#	HV_Battery_Current[A]	HV_Battery_Voltage[V]	HV_Battery_SOC[%]	Accelerator_Pedal_Position[%]
-10.000	0.010	-12.173	29.002	50.849	0.000	0.073	0.469	0.000	0.000
-9.900	0.010	-12.355	29.002	50.849	0.000	0.077	0.476	0.000	0.000
-9.800	0.010	-12.373	29.002	50.848	0.000	0.078	0.491	0.000	0.000
-9.700	0.010	-12.317	29.002	50.849	0.000	0.072	0.471	0.000	0.000
-9.600	0.010	-12.337	29.002	50.853	0.000	0.076	0.476	0.000	0.000
-9.500	0.010	-12.265	29.002	50.859	0.000	0.077	0.470	0.000	0.000
-9.400	0.010	-12.263	29.002	50.862	0.000	0.075	0.476	0.000	0.000
-9.300	0.010	-12.300	29.002	50.863	0.000	0.074	0.477	0.000	0.000
-9.200	0.010	-12.300	29.002	50.864	0.000	0.077	0.477	0.000	0.000
-9.100	0.010	-12.266	29.002	50.864	0.000	0.076	0.473	0.000	0.000
-9.000	0.010	-12.262	29.002	50.863	0.000	0.075	0.473	0.000	0.000
-8.900	0.010	-12.334	29.002	50.866	0.000	0.076	0.473	0.000	0.000
-8.800	0.010	-12.291	29.002	50.871	0.000	0.078	0.476	0.000	0.000
-8.700	0.010	-12.306	29.002	50.875	0.000	0.077	0.470	0.000	0.000
-8.600	0.010	-12.344	29.002	50.877	0.000	0.076	0.472	0.000	0.000
-8.500	0.010	-12.278	29.002	50.877	0.000	0.074	0.469	0.000	0.000
-8.400	0.010	-12.336	29.002	50.877	0.000	0.076	0.476	0.000	0.000
-8.300	0.010	-12.352	29.002	50.878	0.000	0.075	0.473	0.000	0.000
-8.200	0.010	-12.306	29.002	50.880	0.000	0.076	0.462	0.000	0.000
-8.100	0.010	-12.212	29.002	50.886	0.000	0.076	0.472	0.000	0.000
-8.000	0.010	-12.256	29.002	50.891	0.000	0.078	0.476	0.000	0.000
-7.900	0.010	-12.289	29.002	50.894	0.000	0.078	0.480	0.000	0.000
-7.800	0.009	-12.244	29.002	50.895	0.000	0.079	0.474	0.000	0.000
-7.700	0.009	-12.296	29.002	50.895	0.000	0.078	0.476	0.000	0.000
-7.600	0.010	-12.367	29.002	50.895	0.000	0.077	0.477	0.000	0.000
-7.500	0.010	-12.330	29.002	50.896	0.000	0.077	0.477	0.000	0.000
-7.400	0.010	-12.306	29.002	50.900	0.000	0.077	0.477	0.000	0.000
-7.300	0.010	-12.317	29.002	50.906	0.000	0.078	0.477	0.000	0.000
-7.200	0.010	-12.253	29.002	50.910	0.000	0.077	0.477	0.000	0.000
-7.100	0.010	-12.412	29.002	50.912	0.000	0.074	0.463	0.000	0.000
-7.000	0.010	-12.395	29.002	50.912	0.000	0.079	0.468	0.000	0.000
-6.900	0.010	-12.348	29.002	50.913	0.000	0.081	0.476	0.000	0.000
-6.800	0.010	-12.502	29.002	50.913	0.000	0.081	0.477	0.000	0.000
-6.700	0.010	-12.465	29.002	50.917	0.000	0.080	0.477	0.000	0.000
-6.600	0.010	-12.475	29.002	50.924	0.000	0.080	0.480	0.000	0.000
-6.500	0.010	-12.456	29.002	50.929	0.000	0.080	0.477	0.000	0.000
-6.400	0.010	-12.402	29.002	50.931	0.000	0.082	0.473	0.000	0.000
-6.300	0.010	-12.388	29.002	50.931	0.000	0.082	0.476	0.000	0.000
-6.200	0.010	-12.314	29.002	50.932	0.000	0.080	0.477	0.000	0.000
-6.100	0.010	-12.380	29.002	50.932	0.000	0.080	0.470	0.000	0.000
-6.000	0.010	-12.401	29.002	50.934	0.000	0.077	0.469	0.000	0.000
-5.900	0.010	-12.249	29.002	50.940	0.000	0.082	0.472	0.000	0.000
-5.800	0.010	-12.221	29.002	50.947	0.000	0.082	0.476	0.000	0.000
-5.700	0.010	-12.415	29.002	50.949	0.000	0.083	0.477	0.000	0.000
-5.600	0.010	-12.410	29.002	50.950	0.000	0.083	0.477	0.000	0.000
-5.500	0.010	-12.314	29.002	50.949	0.000	0.081	0.473	0.000	0.000
-5.400	0.010	-12.392	29.002	50.950	0.000	0.080	0.469	0.000	0.000
-5.300	0.009	-12.399	29.002	50.953	0.000	0.081	0.472	0.000	0.000
-5.200	0.009	-12.264	29.002	50.960	0.000	0.078	0.476	0.000	0.000
-5.100	0.010	-12.278	29.002	50.968	0.000	0.077	0.470	0.000	0.000
-5.000	0.010	-12.341	29.002	50.970	0.000	0.079	0.476	0.000	0.000
-4.900	0.010	-12.368	29.002	50.971	0.000	0.084	0.484	0.000	0.000
-4.800	0.010	-12.367	29.002	50.972	0.000	0.081	0.478	0.000	0.000
-4.700	0.010	-12.453	29.002	50.972	0.000	0.079	0.477	0.000	0.000
-4.600	0.010	-12.424	29.002	50.973	0.000	0.081	0.477	0.000	0.000
-4.500	0.010	-12.378	29.002	50.978	0.000	0.084	0.473	0.000	0.000
-4.400	0.010	-12.354	29.002	50.986	0.000	0.081	0.476	0.000	0.000
-4.300	0.010	-12.388	29.002	50.991	0.000	0.082	0.470	0.000	0.000
-4.200	0.010	-12.415	29.002	50.993	0.000	0.081	0.476	0.000	0.000
-4.100	0.010	-12.331	29.002	50.993	0.000	0.076	0.470	0.000	0.000
-4.000	0.009	-12.264	29.002	50.993	0.000	0.079	0.472	0.000	0.000
-3.900	0.010	-12.368	29.002	50.995	0.000	0.080	0.476	0.000	0.000
-3.800	0.010	-12.354	29.002	51.003	0.000	0.080	0.477	0.000	0.000
-3.700	0.010	-12.451	29.002	51.011	0.000	0.083	0.477	0.000	0.000
-3.600	0.010	-12.361	29.002	51.015	0.000	0.083	0.477	0.000	0.000
-3.500	0.010	-12.305	29.002	51.016	0.000	0.080	0.480	0.000	0.000
-3.400	0.010	-12.267	29.002	51.018	0.000	0.083	0.474	0.000	0.000
-3.300	0.010	-11.949	29.002	51.018	0.000	0.085	0.476	0.000	0.000
-3.200	0.010	-12.514	29.002	51.018	0.000	0.081	0.473	0.000	0.000
-3.100	0.009	-12.258	29.002	51.025	0.000	0.082	0.466	0.000	0.000
-3.000	0.010	-12.121	29.002	51.035	0.000	0.089	0.462	0.000	0.000
-2.900	0.008	-12.195	29.002	51.039	0.000	0.094	0.475	0.000	0.000
-2.800	0.010	-12.450	29.002	51.039	0.000	0.093	0.477	0.000	0.000
-2.700	0.010	-12.319	29.002	51.041	0.000	0.092	0.477	0.000	0.000
-2.600	0.009	-12.390	29.002	51.042	0.000	0.093	0.473	0.000	0.000
-2.500	0.010	-12.318	29.002	51.041	0.000	0.096	0.469	-4.980	0.000
-2.400	0.010	-12.396	29.002	51.049	0.000	0.097	0.476	-0.024	101.514
-2.300	0.009	-12.342	29.002	51.057	0.000	0.094	0.477	0.000	0.546
-2.200	0.010	-12.372	29.002	51.060	0.000	0.097	0.470	44.759	0.000
-2.100	0.011	-12.372	29.002	51.061	0.000	0.093	0.469	45.000	0.000
-2.000	0.010	-12.384	29.002	51.060	0.000	0.097	0.472	45.000	0.000
-1.900	0.010	-12.402	29.002	51.061	0.000	0.099	0.486	45.000	0.000
-1.800	0.010	-12.192	29.002	51.062	0.000	0.098	0.495	45.000	0.000
-1.700	0.010	-12.417	29.002	51.065	0.000	1.348	74.478	45.000	0.000
-1.600	0.010	-12.259	29.002	51.076	0.000	0.446	303.879	45.000	0.000
-1.500	0.010	-12.249	29.002	51.082	0.000	0.153	340.468	45.000	0.000
-1.400	0.010	-12.346	29.002	51.084	0.000	0.132	341.800	45.000	0.000
-1.300	0.010	-12.197	29.002	51.085	0.000	0.269	341.853	45.000	0.000
-1.200	0.010	-12.233	29.002	51.085	0.000	0.247	341.860	45.000	0.000
-1.100	0.009	-12.264	29.002	51.085	0.000	0.236	341.862	45.000	0.000
-1.000	0.010	-12.273	29.002	51.089	0.000	0.229	341.869	45.000	0.000
-0.900	0.010	-12.327	29.002	51.098	0.000	0.467	341.823	45.000	0.000
-0.800	0.010	-12.268	29.002	51.103	0.000	0.393	341.840	45.000	0.000
-0.700	0.010	-12.278	29.002	51.105	0.000	0.375	341.840	45.000	0.000
-0.600	0.010	-12.144	29.002	51.105	0.000	0.372	341.842	45.000	0.000
-0.500	0.011	-12.323	29.002	51.106	0.000	0.372	341.860	45.000	0.000
-0.400	0.010	-12.232	29.002	51.106	0.000	0.374	341.862	45.000	0.000
-0.300	0.010	-12.284	29.002	51.108	0.000	0.374	341.862	45.000	0.000
-0.200	0.010	-12.424	29.002	51.114	0.000	0.368	341.859	45.000	0.000
-0.100	0.010	-12.256	29.002	51.122	0.000	0.359	341.852	45.000	0.000
-0.000	0.010	-12.203	29.002	51.126	0.000	0.359	341.844	45.000	0.000
0.100	0.011	-12.311	29.002	51.127	0.000	0.359	341.856	45.000	0.000
0.200	0.010	-12.398	29.002	51.128	0.000	0.361	341.855	45.000	0.000
0.300	0.010	-12.290	29.002	51.128	0.000	0.297	341.865	45.000	0.000
0.400	0.010	-12.207	29.002	51.129	0.000	0.210	341.896	45.000	0.000
0.500	0.009	-12.333	29.002	51.133	0.000	0.204	341.898	45.000	0.000
0.600	0.010	-12.279	29.002	51.142	0.000	0.205	341.904	45.000	0.000
0.700	0.010	-12.101	29.002	51.147	0.000	0.205	341.888	45.000	0.000
0.800	0.010	-12.313	29.002	51.148	0.000	0.201	341.899	45.000	0.000
0.900	0.010	-12.499	29.002	51.148	0.000	0.200	341.885	45.000	0.000
1.000	0.010	-12.300	29.002	51.148	0.053	0.198	341.882	45.000	0.000
1.100	0.010	-12.303	29.002	51.150	1.000	0.203	341.902	45.000	0.000
1.200	0.010	-12.331	29.002	51.150	1.000	0.203	341.908	45.000	0.000
1.300	0.010	-12.224	29.002	51.160	1.000	0.198	341.906	45.000	0.000
1.400	0.010	-12.174	29.002	51.165	1.000	0.199	341.902	45.000	0.000
1.500	0.010	-12.428	29.002	51.168	1.000	0.203	341.905	45.000	0.000
1.600	0.011	-12.196	29.002	51.168	1.000	0.204	341.918	45.000	0.000
1.700	0.010	-12.266	29.002	51.168	1.000	0.202	341.914	45.000	0.000
1.800	0.010	-12.307	29.002	51.168	1.000	0.200	341.909	45.000	0.000
1.900	0.010	-12.404	29.002	51.170	1.000	0.229	341.889	45.000	0.000
2.000	0.009	-12.329	29.002	51.177	1.000	0.199	341.892	45.000	0.000
2.100	0.010	-12.236	29.002	51.183	1.000	0.208	341.893	45.000	0.000
2.200	0.010	-12.365	29.002	51.184	1.000	0.253	341.900	45.000	0.000
2.300	0.010	-12.230	29.002	51.185	1.000	0.256	341.901	45.000	0.000
2.400	0.010	-12.262	29.002	51.186	1.000	0.251	341.895	45.000	0.000
2.500	0.010	-12.232	29.002	51.185	1.000	0.247	341.900	45.000	0.000
2.600	0.010	-12.299	29.002	51.185	1.000	0.248	341.888	45.000	0.000
2.700	0.010	-12.259	29.002	51.189	1.000	0.245	341.896	45.000	0.000
2.800	0.011	-12.163	29.002	51.197	1.000	0.242	341.901	45.000	0.000
2.900	0.010	-12.300	29.002	51.199	1.000	0.240	341.898	45.000	0.000
3.000	0.010	-12.306	29.002	51.200	1.000	0.242	341.887	45.000	0.000
3.100	0.010	-12.437	29.002	51.201	1.000	0.245	341.896	45.000	0.000
3.200	0.010	-12.232	29.002	51.200	1.000	0.245	341.904	45.000	0.000
3.300	0.010	-12.372	29.002	51.201	1.000	0.243	341.898	45.000	0.000
3.400	0.010	-12.337	29.002	51.206	1.000	0.242	341.901	45.000	0.000
3.500	0.010	-12.371	29.002	51.214	1.000	0.243	341.904	45.000	0.000
3.600	0.010	-12.263	29.002	51.216	1.000	0.243	341.899	45.000	0.000
3.700	0.010	-12.226	29.002	51.217	1.000	0.243	341.901	45.000	0.000
3.800	0.010	-12.088	29.002	51.218	1.000	0.243	341.901	45.000	0.000
3.900	0.010	-12.406	29.002	51.218	1.000	0.242	341.888	45.000	0.000
4.000	0.010	-12.267	29.002	51.218	1.000	0.241	341.899	45.000	0.000
4.100	0.010	-12.480	29.002	51.222	1.000	0.243	341.908	45.000	0.000
4.200	0.011	-12.407	29.002	51.227	1.000	0.243	341.899	45.000	0.000
4.300	0.010	-12.230	29.002	51.231	1.000	0.243	341.904	45.000	0.000
4.400	0.010	-12.408	29.002	51.233	1.000	0.240	341.908	45.000	0.000
4.500	0.010	-12.193	29.002	51.233	1.000	0.239	341.912	45.000	0.000
4.600	0.010	-12.295	29.002	51.232	1.000	0.243	341.910	45.000	0.000
4.700	0.010	-12.300	29.002	51.234	1.000	0.243	341.899	45.000	0.000
4.800	0.010	-12.161	29.002	51.234	1.000	0.242	341.897	45.000	0.000
4.900	0.011	-12.192	29.002	51.240	1.000	0.239	341.901	45.000	0.000
5.000	0.010	-12.228	29.002	51.245	1.000	0.240	341.901	45.000	0.000
5.100	0.010	-12.544	29.002	51.246	1.000	0.241	341.908	45.000	0.000
5.200	0.010	-12.482	29.002	51.246	1.000	0.242	341.909	45.000	0.000
5.300	0.009	-12.236	29.002	51.248	1.000	0.243	341.902	45.000	0.000
5.400	0.010	-12.495	29.002	51.246	1.000	0.243	341.901	45.000	0.000
5.500	0.010	-12.413	29.002	51.246	1.000	0.241	341.901	45.000	0.000
5.600	0.010	-12.374	29.002	51.250	1.000	0.240	341.904	45.000	0.000
5.700	0.010	-12.442	29.001	51.255	1.000	0.242	341.905	45.000	0.000
5.800	0.010	-12.238	29.002	51.257	1.000	0.240	341.905	45.000	0.000
5.900	0.010	-12.158	29.002	51.260	1.000	0.238	341.895	45.000	0.000
6.000	0.010	-12.364	29.001	51.259	1.000	0.235	341.890	45.000	0.000
6.100	0.010	-12.440	29.002	51.259	1.000	0.241	341.906	45.000	0.000
6.200	0.009	-12.237	29.002	51.258	1.000	0.241	341.912	45.000	0.000
6.300	0.010	-12.262	29.002	51.263	1.000	0.236	341.903	45.000	0.000
6.400	0.009	-12.264	29.001	51.269	1.000	0.240	341.901	45.000	0.000
6.500	0.010	-12.196	29.002	51.272	1.000	0.236	341.901	45.000	0.000
6.600	0.009	-12.499	29.001	51.273	1.000	0.236	341.895	45.000	0.000
6.700	0.010	-12.346	29.001	51.273	1.000	0.236	341.906	45.000	0.000
6.800	0.010	-12.200	29.002	51.273	1.000	0.235	341.902	45.000	0.000
6.900	0.010	-12.429	29.001	51.275	1.000	0.234	341.892	45.000	0.000
7.000	0.010	-12.512	29.001	51.276	1.000	0.235	341.902	45.000	0.000
7.100	0.010	-12.209	29.001	51.281	1.000	0.235	341.902	45.000	0.000
7.200	0.009	-12.259	29.002	51.284	1.000	0.238	341.901	45.000	0.000
7.300	0.009	-12.264	29.002	51.286	1.000	0.237	341.904	45.000	0.000
7.400	0.010	-12.466	29.002	51.287	1.000	0.237	341.892	45.000	0.000
7.500	0.010	-12.349	29.002	51.288	1.000	0.404	341.851	45.000	0.000
7.600	0.010	-12.303	29.002	51.287	1.000	0.393	341.859	45.000	0.000
7.700	0.010	-12.233	29.002	51.289	1.000	0.385	341.849	45.000	0.000
7.800	0.010	-12.094	29.002	51.294	1.000	0.384	341.853	45.000	0.000
7.900	0.010	-12.150	29.002	51.298	1.000	0.384	341.855	45.000	0.000
8.000	0.010	-12.319	29.002	51.301	1.000	0.383	341.855	45.000	0.000
8.100	0.010	-12.336	29.001	51.302	1.000	0.379	341.861	45.000	0.000
8.200	0.010	-12.304	29.002	51.303	1.000	0.512	341.856	45.000	0.000
8.300	0.010	-12.170	29.001	51.303	1.000	0.631	341.845	45.000	0.000
8.400	0.010	-12.188	29.001	51.302	1.000	0.961	341.824	45.000	0.000
8.500	0.125	1.647	29.002	51.307	1.000	1.292	341.797	45.000	0.000
8.600	0.189	36.287	29.001	51.314	1.000	1.756	341.770	45.000	0.000
8.700	0.369	173.002	29.001	51.316	1.000	2.532	341.727	45.000	2.773
8.800	0.478	578.197	29.001	51.316	1.000	2.923	341.706	45.000	3.979
8.900	0.652	792.949	29.001	51.317	1.000	3.210	341.678	45.000	4.791
9.000	0.800	812.806	29.001	51.317	1.000	3.602	341.656	45.000	5.977
9.100	0.944	851.365	29.002	51.316	1.000	4.153	341.630	45.000	7.580
9.200	1.136	915.639	29.002	51.319	1.000	4.678	341.584	45.000	9.567
9.300	1.331	1005.536	29.002	51.327	1.000	5.204	341.550	45.000	11.594
9.400	1.525	1082.314	29.002	51.330	1.000	5.926	341.515	45.000	13.593
9.500	1.722	1138.127	29.002	51.329	1.000	6.446	341.471	45.000	14.790
9.600	1.918	1195.734	29.002	51.331	1.000	6.867	341.456	45.000	14.800
9.700	2.158	1204.739	29.002	51.330	1.000	7.164	341.429	45.000	15.198
9.800	2.355	1179.481	29.002	51.331	1.000	7.327	341.411	45.000	15.598
9.900	2.552	1158.451	29.002	51.333	1.000	7.673	341.380	45.000	15.998
10.000	2.743	1154.399	29.002	51.337	1.000	7.930	341.377	45.000	16.000
10.100	2.938	1126.852	29.002	51.341	1.000	8.031	341.374	45.000	16.000
10.200	3.131	1093.122	29.002	51.343	1.000	8.134	341.354	45.000	16.000
10.300	3.299	1051.490	29.002	51.344	1.000	8.171	341.350	45.000	16.000
10.400	3.478	1011.146	29.002	51.344	1.000	7.941	341.366	45.000	14.415
10.500	3.631	951.145	29.002	51.345	1.000	7.414	341.385	45.000	13.607
10.600	3.776	864.972	29.002	51.345	1.000	7.189	341.389	45.000	13.600
10.700	3.891	799.381	29.002	51.352	1.000	7.282	341.392	45.000	15.184
10.800	4.031	756.955	29.002	51.358	1.000	7.737	341.361	45.000	16.783
10.900	4.178	795.277	29.002	51.360	1.000	8.221	341.325	45.000	18.382
11.000	4.326	846.608	29.002	51.360	1.000	8.660	341.297	45.000	18.795
11.100	4.470	858.278	29.002	51.361	1.000	8.734	341.298	45.000	18.800
11.200	4.616	847.038	29.002	51.360	1.000	8.682	341.300	45.000	18.800
11.300	4.765	827.591	29.002	51.361	1.000	8.652	341.290	45.000	19.199
11.400	4.899	810.739	29.002	51.366	1.000	8.858	341.278	45.000	19.200
11.500	5.039	802.473	29.002	51.372	1.000	9.089	341.260	45.000	19.598
11.600	5.189	804.595	29.002	51.375	1.000	9.286	341.244	45.000	19.998
11.700	5.334	799.177	29.002	51.376	1.000	9.645	341.222	45.000	21.194
11.800	5.487	818.759	29.002	51.375	1.000	10.506	341.171	45.000	23.587
11.900	5.634	872.594	29.002	51.375	1.000	11.539	341.100	45.000	24.395
12.000	5.817	958.341	29.002	51.376	1.000	12.056	341.067	45.000	24.791
12.100	5.974	994.004	29.002	51.379	1.000	12.546	341.041	45.000	25.197
12.200	6.155	999.611	29.002	51.387	1.000	12.981	341.007	45.000	25.597
12.300	6.322	1023.177	29.002	51.391	1.000	13.477	340.959	45.000	25.990
12.400	6.502	1036.229	29.002	51.392	1.000	14.000	340.931	45.000	26.396
12.500	6.691	1042.614	29.002	51.392	1.000	14.547	340.892	45.000	27.589
12.600	6.886	1063.377	29.002	51.392	1.000	15.458	340.825	45.000	28.392
12.700	7.084	1107.594	29.002	51.393	1.000	16.359	340.769	45.000	29.190
12.800	7.281	1155.602	29.002	51.393	1.000	17.012	340.726	45.000	29.596
12.900	7.475	1182.367	29.002	51.402	1.000	17.918	340.657	45.000	30.786
13.000	7.707	1200.364	29.002	51.406	1.000	18.672	340.628	45.000	31.189
13.100	7.908	1232.688	29.002	51.409	1.000	19.210	340.605	45.000	31.595
13.200	8.139	1250.278	29.002	51.410	1.000	19.691	340.576	45.000	31.600
13.300	8.344	1260.452	29.002	51.410	1.000	20.168	340.541	45.000	31.600
13.400	8.578	1257.699	29.002	51.410	1.000	20.493	340.510	45.000	31.600
13.500	8.781	1258.757	29.002	51.412	1.000	20.934	340.467	45.000	31.600
13.600	9.000	1251.002	29.002	51.417	1.000	21.718	340.411	45.000	33.591
13.700	9.213	1270.590	29.002	51.423	1.000	23.373	340.305	45.000	35.192
13.800	9.450	1339.812	29.002	51.427	1.000	24.771	340.227	45.000	35.598
13.900	9.696	1409.683	29.002	51.427	1.000	25.559	340.175	45.000	35.997
14.000	9.965	1433.430	29.002	51.428	1.000	26.221	340.113	45.000	37.183
14.100	10.216	1438.840	29.002	51.428	1.000	27.715	340.029	45.000	37.994
14.200	10.441	1463.005	29.002	51.429	1.000	28.599	339.967	45.000	38.000
14.300	10.709	1480.647	29.002	51.432	1.000	29.047	339.932	45.000	37.603
14.400	10.962	1488.370	29.002	51.439	1.000	29.384	339.901	45.000	37.600
14.500	11.204	1473.915	29.002	51.443	1.000	29.820	339.864	45.000	37.600
14.600	11.449	1446.579	29.002	51.446	1.000	30.161	339.831	45.000	37.600
14.700	11.690	1445.037	29.002	51.446	1.000	30.422	339.803	45.000	37.204
14.800	11.932	1445.383	29.002	51.446	1.000	30.238	339.804	45.000	36.804
14.900	12.171	1407.306	29.002	51.447	1.000	30.440	339.787	45.000	36.800
15.000	12.411	1366.900	29.002	51.449	1.000	30.830	339.745	45.000	36.800
15.100	12.629	1373.211	29.002	51.456	1.000	31.119	339.714	45.000	36.800
15.200	12.867	1373.743	29.002	51.461	1.000	31.544	339.696	45.000	36.800
15.300	13.108	1344.843	29.002	51.464	1.000	31.939	339.643	45.000	36.800
15.400	13.343	1349.452	29.002	51.465	1.000	32.345	339.612	45.000	36.800
15.500	13.557	1368.806	29.002	51.465	1.000	32.976	339.573	45.000	36.800
15.600	13.777	1350.918	29.002	51.464	1.000	33.485	339.534	45.000	36.800
15.700	14.015	1334.600	29.002	51.464	1.000	33.691	339.501	45.000	36.800
15.800	14.241	1346.452	29.002	51.471	1.000	34.041	339.473	45.000	36.404
15.900	14.466	1328.278	29.002	51.477	1.000	34.047	339.461	45.000	35.605
16.000	14.681	1305.280	29.002	51.481	1.000	33.753	339.472	45.000	35.600
16.100	14.877	1297.910	29.002	51.483	1.000	33.956	339.445	45.000	35.600
16.200	15.107	1276.696	29.002	51.483	1.000	34.335	339.409	45.000	35.208
16.300	15.315	1263.798	29.002	51.484	1.000	34.272	339.408	45.000	34.407
16.400	15.506	1258.426	29.002	51.484	1.000	33.808	339.431	45.000	34.005
16.500	15.699	1213.661	29.002	51.489	1.000	33.458	339.437	45.000	33.213
16.600	15.900	1186.382	29.002	51.496	1.000	33.353	339.433	45.000	33.200
16.700	16.090	1184.296	29.002	51.499	1.000	33.459	339.420	45.000	33.200
16.800	16.288	1155.616	29.002	51.499	1.000	33.681	339.390	45.000	33.200
16.900	16.483	1150.637	29.002	51.500	1.000	34.263	339.346	45.000	33.985
17.000	16.677	1160.158	29.002	51.500	1.000	35.470	339.265	45.000	34.390
17.100	16.896	1173.840	29.002	51.500	1.000	36.240	339.216	45.000	34.400
17.200	17.103	1214.196	29.002	51.503	1.000	36.649	339.189	45.000	34.400
17.300	17.309	1205.766	29.002	51.511	1.000	36.983	339.163	45.000	34.400
17.400	17.511	1197.768	29.002	51.516	1.000	37.292	339.121	45.000	34.400
17.500	17.703	1197.878	29.002	51.517	1.000	37.555	339.095	45.000	34.400
17.600	17.896	1184.533	29.002	51.519	1.000	37.856	339.067	45.000	34.400
17.700	18.091	1205.481	29.002	51.519	1.000	38.154	339.051	45.000	34.400
17.800	18.283	1190.146	29.002	51.518	1.000	38.339	339.024	45.000	34.400
17.900	18.477	1181.264	29.002	51.521	1.000	38.468	339.011	45.000	34.002
18.000	18.670	1161.921	29.002	51.527	1.000	38.453	338.985	45.000	34.000
18.100	18.865	1149.993	29.002	51.531	1.000	38.659	338.972	45.000	34.000
18.200	19.061	1160.655	29.002	51.533	1.000	39.047	338.941	45.000	34.000
18.300	19.222	1151.042	29.002	51.533	1.000	39.458	338.904	45.000	34.000
18.400	19.405	1151.531	29.002	51.534	1.000	39.770	338.866	45.000	34.000
18.500	19.607	1147.287	29.002	51.535	1.000	40.156	338.837	45.000	34.396
18.600	19.801	1162.613	29.002	51.535	1.000	40.572	338.801	44.509	34.400
18.700	19.997	1156.337	29.002	51.541	1.000	40.832	338.786	44.500	34.400
18.800	20.186	1149.516	29.002	51.547	1.000	41.135	338.751	44.500	34.400
18.900	20.386	1141.253	29.002	51.550	1.000	41.518	338.706	44.500	34.795
19.000	20.584	1155.604	29.002	51.551	1.000	41.909	338.671	44.500	34.413
19.100	20.780	1161.905	29.002	51.551	1.000	42.156	338.655	44.500	34.400
19.200	20.943	1147.403	29.002	51.551	1.000	42.456	338.628	44.500	34.400
19.300	21.118	1137.698	29.002	51.551	1.000	42.728	338.600	44.500	34.400
19.400	21.311	1143.719	29.002	51.556	1.000	43.029	338.564	44.500	34.400
19.500	21.507	1154.921	29.002	51.563	1.000	43.244	338.540	44.500	34.400
19.600	21.694	1140.397	29.002	51.566	1.000	43.538	338.512	44.500	34.400
19.700	21.885	1125.040	29.002	51.568	1.000	43.894	338.475	44.500	34.400
19.800	22.081	1138.462	29.002	51.568	1.000	44.177	338.457	44.500	34.400
19.900	22.243	1146.712	29.002	51.568	1.000	44.464	338.422	44.500	34.400
20.000	22.420	1132.194	29.002	51.568	1.000	44.915	338.385	44.500	34.400
20.100	22.620	1125.063	29.002	51.572	1.000	45.337	338.347	44.500	34.797
20.200	22.815	1143.049	29.002	51.578	1.000	45.877	338.312	44.500	34.800
20.300	23.009	1149.982	29.002	51.583	1.000	47.151	338.216	44.500	35.994
20.400	23.203	1157.708	29.002	51.586	1.000	48.119	338.149	44.500	36.000
20.500	23.396	1171.713	29.002	51.587	1.000	48.766	338.099	44.500	36.395
20.600	23.592	1199.960	29.002	51.587	1.000	49.621	338.036	44.500	36.400
20.700	23.788	1206.789	29.002	51.588	1.000	50.332	337.980	44.500	36.796
20.800	23.983	1208.081	29.002	51.590	1.000	51.367	337.900	44.500	37.592
20.900	24.178	1222.996	29.002	51.597	1.000	52.322	337.821	44.500	37.600
21.000	24.372	1252.933	29.002	51.603	1.000	52.927	337.777	44.500	37.600
21.100	24.561	1254.069	29.002	51.605	1.000	53.269	337.749	44.500	37.600
21.200	24.773	1236.131	29.002	51.606	1.000	53.538	337.717	44.500	37.600
21.300	24.996	1245.964	29.002	51.607	1.000	53.752	337.683	44.500	37.202
21.400	25.196	1241.588	29.002	51.607	1.000	53.771	337.678	44.500	37.200
21.500	25.390	1223.465	29.002	51.608	1.000	54.082	337.657	44.500	37.200
21.600	25.587	1225.651	29.002	51.615	1.000	54.451	337.612	44.500	37.593
21.700	25.784	1234.634	29.002	51.624	1.000	54.681	337.581	44.500	37.209
21.800	25.976	1223.835	29.002	51.630	1.000	54.950	337.552	44.500	37.200
21.900	26.169	1208.130	29.002	51.631	1.000	55.294	337.511	44.500	37.596
22.000	26.365	1223.303	29.002	51.631	1.000	55.951	337.453	44.500	37.996
22.100	26.563	1229.788	29.002	51.631	1.000	56.861	337.389	44.500	38.396
22.200	26.753	1224.154	29.002	51.631	1.000	57.422	337.341	44.500	38.400
22.300	26.947	1242.014	29.002	51.638	1.000	57.690	337.314	44.500	38.400
22.400	27.148	1245.447	29.002	51.649	1.000	57.949	337.281	44.500	38.400
22.500	27.344	1220.780	29.002	51.654	1.000	57.758	337.268	44.500	38.400
22.600	27.536	1212.876	29.002	51.656	1.000	57.468	337.259	44.500	38.005
22.700	27.732	1202.412	29.002	51.657	1.000	56.575	337.294	44.500	38.000
22.800	27.928	1168.398	29.002	51.657	1.000	57.079	337.261	44.500	38.000
22.900	28.121	1168.884	29.002	51.657	1.000	57.322	337.223	44.500	38.000
23.000	28.292	1176.098	29.002	51.661	1.000	57.720	337.185	44.500	38.000
23.100	28.463	1161.161	29.002	51.672	1.000	55.893	337.280	44.500	35.233
23.200	28.639	1132.423	29.002	51.681	1.000	51.779	337.486	44.500	34.404
23.300	28.793	1039.211	29.002	51.685	1.000	50.009	337.592	44.500	34.400
23.400	28.940	956.701	29.002	51.686	1.000	50.756	337.556	44.500	34.400
23.500	29.105	979.776	29.002	51.687	1.000	51.108	337.515	44.500	35.193
23.600	29.266	1009.469	29.002	51.688	1.000	50.821	337.498	44.500	36.392
23.700	29.411	982.076	29.002	51.690	1.000	51.904	337.416	44.500	36.791
23.800	29.564	995.303	29.002	51.700	1.000	54.063	337.305	44.500	36.800
23.900	29.718	1041.064	29.002	51.711	1.000	53.649	337.308	44.500	36.800
24.000	29.884	1026.138	29.002	51.716	1.000	54.332	337.252	44.500	36.800
24.100	30.054	1023.730	29.002	51.718	1.000	55.987	337.158	44.500	37.581
24.200	30.226	1051.879	29.002	51.719	1.000	56.926	337.074	44.500	38.392
24.300	30.387	1060.256	29.002	51.719	1.000	57.146	337.046	44.500	38.795
24.400	30.555	1081.800	29.002	51.720	1.000	59.394	336.924	44.500	39.591
24.500	30.726	1105.478	29.002	51.729	1.000	61.536	336.783	44.500	40.391
24.600	30.893	1130.750	29.002	51.742	1.000	63.862	336.635	44.500	41.981
24.700	31.084	1184.644	29.002	51.750	1.000	64.451	336.550	44.500	42.394
24.800	31.286	1207.108	29.002	51.754	1.000	63.317	336.571	44.500	42.400
24.900	31.485	1184.340	29.002	51.756	1.000	64.866	336.459	44.500	42.400
25.000	31.677	1188.591	29.002	51.756	1.000	67.330	336.340	44.500	42.400
25.100	31.870	1215.611	29.002	51.757	1.000	67.030	336.367	44.500	42.400
25.200	32.052	1219.041	29.002	51.764	1.000	63.775	336.488	44.500	42.400
25.300	32.221	1176.991	29.002	51.778	1.000	61.571	336.579	44.500	42.400
25.400	32.393	1113.276	29.002	51.788	1.000	62.524	336.527	44.500	42.400
25.500	32.564	1106.105	29.002	51.794	1.000	63.872	336.439	44.500	42.400
25.600	32.734	1132.501	29.002	51.795	1.000	62.720	336.494	44.500	42.400
25.700	32.904	1112.367	29.002	51.795	1.000	62.958	336.454	44.500	42.003
25.800	33.078	1098.757	29.002	51.796	1.000	61.896	336.480	44.500	41.603
25.900	33.231	1077.130	29.002	51.801	1.000	59.415	336.609	44.500	41.203
26.000	33.395	1036.594	29.002	51.817	1.000	58.677	336.654	44.500	41.200
26.100	33.560	1025.435	29.002	51.832	1.000	60.436	336.580	44.500	40.804
26.200	33.707	1014.976	29.002	51.839	1.000	60.285	336.598	44.500	39.215
26.300	33.856	1015.513	29.002	51.842	1.000	54.789	336.899	44.500	37.220
26.400	33.980	942.157	29.002	51.843	1.000	51.704	337.082	44.500	36.424
26.500	34.098	844.818	29.002	51.843	1.000	50.928	337.133	44.500	35.224
26.600	34.224	833.585	29.002	51.846	1.000	49.231	337.248	44.500	33.619
26.700	34.320	795.392	29.002	51.861	1.000	47.226	337.367	44.500	32.414
26.800	34.418	751.178	29.002	51.880	1.000	43.929	337.547	44.500	30.820
26.900	34.517	697.022	29.002	51.889	1.000	41.213	337.707	44.500	29.604
27.000	34.614	631.717	29.002	51.892	1.000	39.439	337.810	44.500	29.208
27.100	34.689	602.810	29.002	51.893	1.000	37.823	337.913	44.500	28.005
27.200	34.744	555.753	29.002	51.894	1.000	35.716	338.038	44.500	27.204
27.300	34.802	522.661	29.002	51.895	1.000	32.425	338.222	44.500	24.812
27.400	34.851	474.892	29.002	51.906	1.000	30.035	338.376	44.500	24.402
27.500	34.899	405.566	29.002	51.927	1.000	29.046	338.437	44.500	24.400
27.600	34.942	391.249	29.002	51.941	1.000	28.997	338.447	44.500	24.400
27.700	34.983	375.956	29.002	51.947	1.000	29.280	338.440	44.500	24.400
27.800	35.033	385.030	29.002	51.948	1.000	29.124	338.455	44.500	24.400
27.900	35.081	387.293	29.002	51.948	1.000	28.648	338.479	44.500	24.003
28.000	35.129	368.658	29.002	51.950	1.000	28.329	338.497	44.500	24.000
28.100	35.161	367.666	29.002	51.961	1.000	27.892	338.527	44.500	24.000
28.200	35.191	347.465	29.002	51.983	1.000	27.790	338.544	44.500	24.000
28.300	35.240	355.675	29.002	52.000	1.000	27.472	338.564	44.500	23.208
28.400	35.283	364.055	29.002	52.005	1.000	26.546	338.618	44.500	22.804
28.500	35.310	346.248	29.002	52.008	1.000	25.256	338.697	44.500	22.009
28.600	35.338	316.144	29.002	52.009	1.000	24.002	338.773	44.500	21.605
28.700	35.380	277.223	29.002	52.008	1.000	23.474	338.810	44.500	21.600
28.800	35.407	279.327	29.002	52.015	1.000	23.296	338.824	44.500	21.600
28.900	35.429	268.163	29.002	52.034	1.000	23.263	338.827	44.500	21.600
29.000	35.455	262.805	29.002	52.058	1.000	22.830	338.849	44.500	20.809
29.100	35.464	266.594	29.002	52.069	1.000	21.418	338.933	44.500	20.003
29.200	35.484	234.380	29.002	52.072	1.000	20.230	339.015	44.500	20.000
29.300	35.513	219.631	29.002	52.074	1.000	19.120	339.084	44.500	18.806
29.400	35.513	190.823	29.002	52.074	1.000	17.852	339.158	44.500	18.402
29.500	35.513	174.918	29.002	52.078	1.000	17.193	339.205	44.500	18.400
29.600	35.513	159.505	29.002	52.096	1.000	17.078	339.221	44.500	18.400
29.700	35.513	140.691	29.002	52.122	1.000	17.080	339.221	44.500	18.400
29.800	35.513	157.660	29.002	52.135	1.000	16.741	339.239	44.500	18.003
29.900	35.522	140.350	29.002	52.139	1.000	16.314	339.269	44.500	18.000
30.000	35.527	140.181	29.002	52.139	1.000	15.622	339.309	44.500	16.837
30.100	35.513	128.390	29.002	52.139	1.000	14.059	339.414	44.500	16.404
30.200	35.513	99.577	29.002	52.141	1.000	13.247	339.477	44.500	16.400
30.300	35.513	86.382	29.002	52.154	1.000	13.442	339.467	44.500	16.400
30.400	35.513	76.864	29.002	52.181	1.000	13.694	339.447	44.500	16.796
30.500	35.513	95.151	29.002	52.201	1.000	13.631	339.452	44.500	16.407
30.600	35.513	82.678	29.002	52.207	1.000	13.185	339.483	44.500	16.005
30.700	35.487	78.038	29.002	52.209	1.000	8.792	339.730	44.500	10.072
30.800	35.445	6.393	29.002	52.210	1.000	4.009	340.026	44.500	10.790
30.900	35.402	-94.796	29.002	52.211	1.000	4.593	340.006	44.500	13.192
31.000	35.372	-84.558	29.002	52.230	1.000	8.123	339.800	44.500	15.157
31.100	35.366	-5.413	29.002	52.258	1.000	11.697	339.603	44.500	16.395
31.200	35.365	74.230	29.002	52.273	1.000	13.485	339.511	44.500	16.400
31.300	35.367	77.314	29.002	52.278	1.000	13.706	339.500	44.500	16.400
31.400	35.366	98.292	29.002	52.281	1.000	13.838	339.486	44.500	16.400
31.500	35.366	86.505	29.002	52.281	1.000	14.135	339.467	44.500	17.188
31.600	35.366	101.894	29.002	52.281	1.000	14.647	339.443	44.500	17.200
31.700	35.355	118.804	29.002	52.294	1.000	15.035	339.424	44.500	17.200
31.800	35.366	100.513	29.002	52.328	1.000	15.213	339.421	44.500	17.597
31.900	35.342	135.751	29.002	52.344	1.000	15.479	339.408	44.500	17.600
32.000	35.367	110.080	29.002	52.349	1.000	15.522	339.400	44.500	17.600
32.100	35.366	135.822	29.002	52.350	1.000	15.615	339.395	44.500	17.600
32.200	35.367	127.575	29.002	52.351	1.000	15.487	339.405	44.500	17.204
32.300	35.366	110.874	29.002	52.353	1.000	15.269	339.419	44.500	17.200
32.400	35.366	129.287	29.002	52.369	1.000	15.103	339.427	44.500	16.804
32.500	35.360	96.616	29.002	52.399	1.000	14.117	339.473	44.500	16.009
32.600	35.328	90.187	29.002	52.413	1.000	12.806	339.553	44.500	15.605
32.700	35.319	54.396	29.002	52.418	1.000	12.140	339.602	44.500	15.600
32.800	35.319	52.357	29.002	52.420	1.000	12.049	339.613	44.500	15.600
32.900	35.319	64.239	29.002	52.421	1.000	12.115	339.615	44.500	15.600
33.000	35.314	43.335	29.002	52.422	1.000	12.161	339.613	44.500	15.600
33.100	35.284	79.760	29.002	52.425	1.000	12.283	339.611	44.500	15.600
33.200	35.269	51.839	29.002	52.455	1.000	12.379	339.609	44.500	15.998
33.300	35.268	61.561	29.002	52.476	1.000	12.615	339.599	44.500	16.000
33.400	35.269	73.935	29.002	52.483	1.000	12.925	339.581	44.500	16.000
33.500	35.266	61.220	29.002	52.485	1.000	13.084	339.566	44.500	16.000
33.600	35.244	95.868	29.002	52.487	1.000	12.983	339.571	44.500	16.000
33.700	35.233	66.101	29.002	52.488	1.000	12.773	339.586	44.500	16.000
33.800	35.221	81.018	29.003	52.492	1.000	12.842	339.588	44.500	16.000
33.900	35.220	72.129	29.002	52.518	1.000	12.965	339.578	44.500	16.000
34.000	35.221	70.040	29.002	52.538	1.000	13.055	339.572	44.500	16.000
34.100	35.221	92.878	29.002	52.548	1.000	13.170	339.570	44.500	16.000
34.200	35.222	67.812	29.002	52.549	1.000	13.326	339.562	44.500	16.396
34.300	35.219	102.981	29.002	52.550	1.000	13.573	339.555	44.500	16.400
34.400	35.208	86.313	29.002	52.551	1.000	13.769	339.543	44.500	16.400
34.500	35.215	90.100	29.002	52.553	1.000	14.081	339.517	44.500	16.796
34.600	35.173	107.189	29.002	52.566	1.000	14.415	339.498	44.500	16.800
34.700	35.196	91.343	29.002	52.592	1.000	14.562	339.493	44.500	16.800
34.800	35.184	122.933	29.002	52.602	1.000	14.543	339.497	44.500	16.800
34.900	35.173	93.582	29.002	52.606	1.000	14.453	339.500	44.500	16.800
35.000	35.194	110.486	29.002	52.608	1.000	14.402	339.497	44.500	16.800
35.100	35.170	115.171	29.002	52.608	1.000	14.386	339.503	44.500	16.800
35.200	35.170	87.803	29.002	52.609	1.000	14.396	339.510	44.500	16.800
35.300	35.170	118.887	29.002	52.617	1.000	14.416	339.506	44.500	16.800
35.400	35.170	96.059	29.002	52.644	1.000	14.390	339.509	44.500	16.800
35.500	35.171	117.058	29.002	52.657	1.000	14.349	339.514	44.500	16.800
35.600	35.170	103.208	29.002	52.660	1.000	14.409	339.508	44.500	16.800
35.700	35.171	93.655	29.002	52.663	1.000	14.425	339.507	44.500	16.800
35.800	35.170	122.026	29.002	52.663	1.000	14.486	339.508	44.500	16.800
35.900	35.170	95.152	29.002	52.663	1.000	14.512	339.506	44.500	16.800
36.000	35.171	118.696	29.002	52.666	1.000	14.547	339.500	44.500	16.800
36.100	35.170	102.731	29.002	52.687	1.000	14.575	339.499	44.500	16.800
36.200	35.171	110.782	29.002	52.702	1.000	14.616	339.496	44.500	16.800
36.300	35.172	124.483	29.002	52.708	1.000	14.631	339.499	44.500	16.800
36.400	35.170	88.197	29.002	52.710	1.000	14.578	339.500	44.500	16.800
36.500	35.169	117.325	29.002	52.710	1.000	14.527	339.501	44.500	16.800
36.600	35.170	97.844	29.002	52.711	1.000	14.565	339.500	44.500	16.800
36.700	35.169	107.933	29.002	52.714	1.000	14.583	339.495	44.500	16.800
36.800	35.170	111.699	29.002	52.730	1.000	14.515	339.497	44.500	16.800
36.900	35.170	91.321	29.002	52.746	1.000	14.525	339.501	44.500	16.800
37.000	35.169	128.656	29.002	52.754	1.000	14.317	339.507	44.500	16.800
37.100	35.169	89.710	29.002	52.754	1.000	14.411	339.504	44.500	16.800
37.200	35.169	116.922	29.002	52.755	1.000	14.595	339.505	44.500	16.800
37.300	35.157	116.199	29.002	52.755	1.000	14.546	339.502	44.500	16.800
37.400	35.169	96.624	29.002	52.756	1.000	14.672	339.495	44.500	16.800
37.500	35.147	126.033	29.002	52.765	1.000	14.664	339.499	44.500	16.800
37.600	35.147	91.652	29.002	52.780	1.000	14.584	339.505	44.500	16.800
37.700	35.169	122.441	29.001	52.788	1.000	14.643	339.496	44.500	16.800
37.800	35.147	111.136	29.002	52.789	1.000	14.657	339.489	44.500	16.800
37.900	35.143	95.061	29.001	52.791	1.000	14.720	339.487	44.500	16.800
38.000	35.124	128.347	29.001	52.791	1.000	14.698	339.487	44.500	16.800
38.100	35.124	90.204	29.001	52.793	1.000	14.614	339.495	44.500	16.800
38.200	35.124	116.881	29.001	52.797	1.000	14.726	339.495	44.500	17.196
38.300	35.124	85.916	29.001	52.810	1.000	14.906	339.479	44.500	16.804
38.400	35.124	113.242	29.001	52.816	1.000	15.078	339.466	44.500	17.196
38.500	35.122	141.183	29.001	52.818	1.000	15.260	339.458	44.500	17.200
38.600	35.124	105.833	29.001	52.819	1.000	15.350	339.454	44.500	17.200
38.700	35.134	135.051	29.001	52.819	1.000	15.265	339.462	44.500	17.200
38.800	35.123	101.605	29.001	52.820	1.000	15.146	339.466	44.500	17.200
38.900	35.146	125.481	29.001	52.820	1.000	15.234	339.456	44.500	17.200
39.000	35.124	135.879	29.001	52.828	1.000	15.306	339.450	44.500	17.200
39.100	35.123	101.280	29.001	52.836	1.000	15.308	339.454	44.500	17.200
39.200	35.147	142.055	29.001	52.837	1.000	15.337	339.456	44.500	17.200
39.300	35.171	113.547	29.001	52.838	1.000	15.255	339.462	44.500	17.200
39.400	35.170	131.341	29.001	52.839	1.000	15.163	339.462	44.500	17.200
39.500	35.157	117.712	29.001	52.840	1.000	15.229	339.456	44.500	17.200
39.600	35.172	110.919	29.001	52.839	1.000	15.321	339.456	44.500	17.200
39.700	35.147	142.030	29.001	52.842	1.000	15.323	339.450	44.500	17.200
39.800	35.171	109.345	29.001	52.848	1.000	15.333	339.448	44.500	17.200
39.900	35.169	135.987	29.001	52.851	1.000	15.173	339.456	44.500	17.200
40.000	35.156	115.216	29.001	52.852	1.000	15.227	339.454	44.500	17.200
40.100	35.169	122.105	29.001	52.853	1.000	15.349	339.460	44.500	17.200
40.200	35.170	138.321	29.001	52.852	1.000	15.239	339.469	44.500	17.200
40.300	35.170	95.956	29.001	52.852	1.000	15.139	339.464	44.500	17.200
40.400	35.170	135.693	29.001	52.854	1.000	15.077	339.462	44.500	17.200
40.500	35.170	109.230	29.001	52.858	1.000	14.954	339.470	44.500	16.805
40.600	35.170	114.560	29.001	52.858	1.000	14.835	339.477	44.500	16.800
40.700	35.170	120.894	29.001	52.859	1.000	14.887	339.477	44.500	17.192
40.800	35.170	98.696	29.001	52.859	1.000	14.949	339.473	44.500	17.200
40.900	35.169	137.842	29.001	52.859	1.000	14.986	339.464	44.500	17.200
41.000	35.169	104.557	29.001	52.858	1.000	15.016	339.458	44.500	17.200
41.100	35.170	126.672	29.001	52.858	1.000	15.057	339.464	44.500	17.200
41.200	35.170	124.484	29.001	52.860	1.000	14.937	339.477	44.500	16.802
41.300	35.171	101.133	29.001	52.860	1.000	14.890	339.477	44.500	17.198
41.400	35.170	132.029	29.001	52.861	1.000	14.959	339.477	44.500	17.200
41.500	35.170	102.996	29.001	52.861	1.000	14.977	339.477	44.500	16.803
41.600	35.171	131.014	29.001	52.862	1.000	14.985	339.471	44.500	16.800
41.700	35.173	115.464	29.001	52.861	1.000	14.980	339.473	44.500	16.800
41.800	35.171	109.597	29.001	52.861	1.000	14.991	339.466	44.500	16.800
41.900	35.170	130.169	29.001	52.859	1.000	14.836	339.464	44.500	16.800
42.000	35.170	94.690	29.001	52.858	1.000	14.676	339.476	44.500	16.800
42.100	35.171	121.861	29.001	52.858	1.000	14.646	339.483	44.500	16.800
42.200	35.157	99.554	29.001	52.857	1.000	14.653	339.487	44.500	16.800
42.300	35.169	110.414	29.001	52.857	1.000	14.677	339.489	44.500	16.800
42.400	35.148	125.153	29.001	52.857	1.000	14.409	339.499	44.500	16.800
42.500	35.167	90.860	29.001	52.857	1.000	14.441	339.498	44.500	16.800
42.600	35.141	117.932	29.001	52.855	1.000	14.712	339.487	44.500	16.800
42.700	35.154	100.511	29.001	52.849	1.000	14.686	339.487	44.500	16.800
42.800	35.169	115.126	29.001	52.848	1.000	14.674	339.487	44.500	16.800
42.900	35.128	118.623	29.001	52.847	1.000	14.691	339.487	44.500	16.800
43.000	35.124	96.050	29.001	52.847	1.000	14.477	339.499	44.500	16.800
43.100	35.124	120.882	29.001	52.847	1.000	14.540	339.493	44.500	16.800
43.200	35.124	98.093	29.001	52.847	1.000	14.792	339.479	44.500	16.800
43.300	35.124	122.602	29.001	52.845	1.000	14.909	339.479	44.500	17.198
43.400	35.124	119.513	29.001	52.839	1.000	14.982	339.475	44.500	16.802
43.500	35.145	104.990	29.001	52.834	1.000	14.817	339.477	44.500	17.195
43.600	35.126	128.405	29.001	52.833	1.000	14.803	339.479	44.500	16.803
43.700	35.124	101.830	29.001	52.833	1.000	14.904	339.479	44.500	16.800
43.800	35.124	127.132	29.001	52.832	1.000	14.879	339.475	44.500	16.800
43.900	35.124	110.923	29.001	52.833	1.000	14.783	339.466	44.500	16.800
44.000	35.143	107.861	29.001	52.831	1.000	14.796	339.467	44.500	16.800
44.100	35.126	125.731	29.001	52.823	1.000	14.831	339.475	44.500	16.800
44.200	35.123	95.135	29.001	52.819	1.000	14.811	339.473	44.500	16.800
44.300	35.136	125.223	29.001	52.816	1.000	14.854	339.473	44.500	16.800
44.400	35.126	105.795	29.001	52.816	1.000	14.844	339.475	44.500	16.800
44.500	35.145	113.905	29.001	52.815	1.000	14.895	339.468	44.500	17.195
44.600	35.127	125.052	29.001	52.816	1.000	15.033	339.458	44.500	17.200
44.700	35.124	104.613	29.001	52.816	1.000	14.985	339.460	44.500	17.200
44.800	35.133	131.739	29.001	52.808	1.000	15.004	339.460	44.500	16.805
44.900	35.125	106.166	29.001	52.802	1.000	15.054	339.448	44.500	17.199
45.000	35.124	118.316	29.001	52.799	1.000	15.039	339.454	44.500	16.810
45.100	35.123	121.051	29.001	52.797	1.000	15.094	339.464	44.500	17.198
45.200	35.124	110.482	29.001	52.797	1.000	15.125	339.456	44.500	17.200
45.300	35.132	138.675	29.001	52.796	1.000	15.045	339.462	44.500	17.200
45.400	35.125	108.675	29.001	52.796	1.000	15.036	339.464	44.500	17.200
45.500	35.143	129.788	29.001	52.791	1.000	15.048	339.458	44.500	17.200
45.600	35.128	120.424	29.001	52.782	1.000	15.042	339.452	44.003	17.200
45.700	35.146	108.919	29.001	52.777	1.000	15.192	339.446	44.000	17.200
45.800	35.128	132.333	29.001	52.777	1.000	15.330	339.442	44.000	17.200
45.900	35.143	112.719	29.001	52.776	1.000	15.353	339.437	44.000	17.200
46.000	35.166	135.596	29.001	52.776	1.000	15.381	339.431	44.000	17.200
46.100	35.158	116.962	29.001	52.775	1.000	15.413	339.433	44.000	17.200
46.200	35.167	117.550	29.001	52.770	1.000	15.292	339.440	44.000	17.200
46.300	35.169	130.935	29.001	52.762	1.000	15.352	339.435	44.000	17.200
46.400	35.170	112.095	29.001	52.757	1.000	15.474	339.433	44.000	17.200
46.500	35.169	139.767	29.001	52.755	1.000	15.250	339.442	44.000	17.200
46.600	35.170	113.566	29.001	52.751	1.000	15.320	339.433	44.000	17.200
46.700	35.171	128.257	29.001	52.752	1.000	15.472	339.428	44.000	17.200
46.800	35.171	135.881	29.001	52.752	1.000	15.342	339.439	44.000	17.200
46.900	35.172	109.613	29.001	52.750	1.000	15.454	339.427	44.000	17.200
47.000	35.171	136.732	29.001	52.739	1.000	15.540	339.417	44.000	17.200
47.100	35.171	123.575	29.001	52.731	1.000	15.473	339.427	44.000	17.200
47.200	35.171	131.815	29.001	52.728	1.000	15.349	339.433	44.000	17.598
47.300	35.171	126.090	29.001	52.727	1.000	15.392	339.423	44.000	17.205
47.400	35.171	116.476	29.001	52.727	1.000	15.511	339.417	44.000	17.200
47.500	35.170	141.421	29.001	52.727	1.000	15.455	339.423	44.000	17.200
47.600	35.171	118.157	29.001	52.726	1.000	15.403	339.432	44.000	17.200
47.700	35.172	133.726	29.001	52.717	1.000	15.417	339.433	44.000	17.200
47.800	35.170	123.216	29.001	52.707	1.000	15.289	339.432	44.000	17.200
47.900	35.171	119.896	29.001	52.702	1.000	15.583	339.375	44.000	20.770
48.000	35.238	170.952	29.001	52.700	1.000	30.468	338.368	44.000	96.539
48.100	35.462	582.576	29.001	52.698	1.000	74.915	335.538	44.000	99.975
48.200	35.816	1603.874	29.001	52.698	1.000	127.568	332.477	44.000	100.000
48.300	36.231	2372.803	29.001	52.697	1.000	150.510	331.246	44.000	100.000
48.400	36.640	2527.438	29.001	52.688	1.000	148.276	331.262	44.000	100.000
48.500	37.032	2437.442	29.001	52.678	1.000	147.918	331.166	44.000	100.000
48.600	37.450	2398.577	29.001	52.673	1.000	151.844	330.881	44.000	100.000
48.700	37.831	2434.322	29.001	52.671	1.000	154.332	330.717	44.000	100.000
48.800	38.248	2441.347	29.001	52.670	1.000	154.580	330.653	44.000	100.000
48.900	38.620	2438.911	29.001	52.669	1.000	154.625	330.594	44.000	100.000
49.000	39.029	2398.862	29.001	52.669	1.000	154.840	330.523	44.000	100.000
49.100	39.400	2387.766	29.001	52.665	1.000	154.969	330.451	44.000	100.000
49.200	39.772	2359.182	29.001	52.654	1.000	154.853	330.391	44.000	100.000
49.300	40.154	2335.819	29.001	52.647	1.000	154.875	330.334	44.000	100.000
49.400	40.505	2314.487	29.001	52.645	1.000	154.970	330.284	44.000	100.000
49.500	40.881	2284.794	29.001	52.642	1.000	154.878	330.229	44.000	100.000
49.600	41.227	2271.560	29.001	52.642	1.000	154.724	330.186	44.000	100.000
49.700	41.576	2235.093	29.001	52.642	1.000	154.528	330.153	44.000	100.000
49.800	41.916	2226.777	29.001	52.640	1.000	154.402	330.105	44.000	100.000
49.900	42.268	2189.271	29.001	52.630	1.000	154.153	330.062	44.000	100.000
50.000	42.615	2178.313	29.001	52.623	1.000	153.814	330.031	44.000	100.000
50.100	42.954	2145.041	29.001	52.620	1.000	153.631	329.998	44.000	100.000
50.200	43.283	2137.409	29.001	52.618	1.000	153.660	329.953	44.000	100.000
50.300	43.611	2109.440	29.001	52.617	1.000	153.904	329.890	44.000	100.000
50.400	43.933	2103.779	29.001	52.617	1.000	154.096	329.826	44.000	100.000
50.500	44.250	2080.581	29.001	52.616	1.000	154.257	329.777	44.000	100.000
50.600	44.589	2076.544	29.001	52.607	1.000	154.358	329.731	44.000	100.000
50.700	44.906	2051.828	29.001	52.599	1.000	154.467	329.673	44.000	100.000
50.800	45.204	2042.004	29.001	52.594	1.000	154.565	329.620	44.000	100.000
50.900	45.532	2027.696	29.001	52.592	1.000	154.588	329.582	44.000	100.000
51.000	45.847	2017.610	29.001	52.592	1.000	154.585	329.547	44.000	100.000
51.100	46.140	1997.891	29.001	52.592	1.000	154.570	329.505	44.000	100.000
51.200	46.432	1983.056	29.001	52.592	1.000	154.504	329.474	44.000	100.000
51.300	46.723	1969.967	29.001	52.584	1.000	154.462	329.439	44.000	100.000
51.400	47.017	1945.793	29.001	52.574	1.000	154.362	329.402	44.000	100.000
51.500	47.317	1940.255	29.001	52.569	1.000	154.330	329.360	44.000	100.000
51.600	47.635	1922.181	29.001	52.567	1.000	154.641	329.294	44.000	100.000
51.700	47.903	1919.698	29.001	52.567	1.000	154.581	329.257	44.000	100.000
51.800	48.184	1898.495	29.001	52.566	1.000	154.363	329.235	44.000	100.000
51.900	48.478	1887.553	29.001	52.567	1.000	154.447	329.188	44.000	100.000
52.000	48.771	1873.576	29.001	52.563	1.000	154.284	329.167	44.000	100.000
52.100	49.035	1857.460	29.001	52.554	1.000	154.162	329.139	44.000	100.000
52.200	49.316	1846.896	29.001	52.547	1.000	154.020	329.107	44.000	100.000
52.300	49.584	1827.729	29.001	52.544	1.000	153.938	329.076	44.000	100.000
52.400	49.879	1822.871	29.001	52.542	1.000	153.985	329.038	44.000	100.000
52.500	50.147	1808.010	29.001	52.541	1.000	154.154	328.993	44.000	100.000
52.600	50.426	1804.248	29.001	52.542	1.000	154.271	328.947	44.000	100.000
52.700	50.684	1796.781	29.001	52.538	1.000	154.366	328.908	44.000	100.000
52.800	50.939	1779.766	29.001	52.528	1.000	154.432	328.870	44.000	100.000
52.900	51.209	1774.927	29.001	52.519	1.000	154.488	328.826	44.000	100.000
53.000	51.461	1761.017	29.001	52.516	1.000	154.604	328.784	43.511	100.000
53.100	51.716	1754.680	29.001	52.515	1.000	154.785	328.741	43.500	100.000
53.200	51.965	1747.388	29.001	52.515	1.000	154.952	328.693	43.500	100.000
53.300	52.231	1738.399	29.001	52.514	1.000	155.019	328.653	43.500	100.000
53.400	52.488	1736.882	29.001	52.513	1.000	154.961	328.623	43.500	100.000
53.500	52.739	1719.485	29.001	52.505	1.000	154.886	328.594	43.500	100.000
53.600	52.990	1709.679	29.001	52.494	1.000	154.814	328.562	43.500	100.000
53.700	53.234	1702.360	29.001	52.489	1.000	154.844	328.521	43.500	100.000
53.800	53.473	1688.279	29.001	52.488	1.000	154.751	328.493	43.500	100.000
53.900	53.706	1681.518	29.001	52.486	1.000	154.569	328.470	43.500	100.000
54.000	53.957	1669.351	29.001	52.487	1.000	154.330	328.454	43.500	90.258
54.100	54.206	1654.112	29.001	52.486	1.000	148.871	328.695	43.500	73.757
54.200	54.396	1586.131	29.001	52.478	1.000	132.062	329.577	43.500	62.115
54.300	54.548	1382.477	29.001	52.465	1.000	104.951	331.130	43.500	49.332
54.400	54.632	1049.535	29.001	52.458	1.000	76.632	332.834	43.500	41.683
54.500	54.659	731.079	29.001	52.456	1.000	58.307	333.995	43.500	37.646
54.600	54.695	516.380	29.001	52.454	1.000	45.960	334.789	43.500	32.858
54.700	54.683	368.939	29.001	52.455	1.000	33.928	335.530	43.500	28.042
54.800	54.644	232.129	29.001	52.455	1.000	23.519	336.209	43.500	26.007
54.900	54.621	99.264	29.001	52.450	1.000	18.856	336.557	43.500	26.000
55.000	54.586	58.079	29.001	52.436	1.000	18.964	336.609	43.500	26.000
55.100	54.547	59.078	29.001	52.425	1.000	20.245	336.567	43.500	27.983
55.200	54.524	76.566	29.001	52.420	1.000	24.423	336.337	43.500	31.136
55.300	54.518	147.187	29.001	52.419	1.000	32.809	335.860	43.500	35.030
55.400	54.540	247.442	29.001	52.418	1.000	40.334	335.455	43.500	35.990
55.500	54.562	338.134	29.001	52.418	1.000	42.675	335.347	43.500	36.000
55.600	54.568	358.182	29.001	52.414	1.000	43.390	335.303	43.500	36.791
55.700	54.588	362.317	29.001	52.400	1.000	44.819	335.229	43.500	36.800
55.800	54.610	381.973	29.001	52.387	1.000	45.324	335.212	43.500	36.412
55.900	54.630	388.705	29.001	52.382	1.000	45.113	335.225	43.500	36.797
56.000	54.654	377.313	29.001	52.381	1.000	45.135	335.235	43.500	36.800
56.100	54.685	380.502	29.001	52.380	1.000	45.233	335.238	43.500	36.800
56.200	54.709	383.807	29.001	52.380	1.000	45.623	335.218	43.500	37.196
56.300	54.735	383.508	29.001	52.379	1.000	46.206	335.193	43.500	37.200
56.400	54.759	403.973	29.001	52.367	1.000	46.256	335.195	43.500	36.804
56.500	54.765	398.652	29.001	52.351	1.000	44.005	335.314	43.500	35.207
56.600	54.765	364.265	29.001	52.340	1.000	40.449	335.519	43.500	34.012
56.700	54.774	332.627	29.001	52.336	1.000	36.554	335.756	43.500	32.021
56.800	54.772	273.749	29.001	52.335	1.000	31.545	336.055	43.500	29.626
56.900	54.765	218.854	29.001	52.335	1.000	28.284	336.273	43.500	29.600
57.000	54.745	179.310	29.001	52.334	1.000	27.599	336.342	43.500	29.600
57.100	54.735	162.693	29.001	52.323	1.000	27.583	336.361	43.500	29.600
57.200	54.726	174.409	29.001	52.305	1.000	27.846	336.362	43.500	29.995
57.300	54.701	168.751	29.001	52.291	1.000	28.687	336.312	43.500	30.776
57.400	54.703	178.590	29.001	52.286	1.000	31.346	336.163	43.500	32.394
57.500	54.706	214.752	29.001	52.284	1.000	33.901	336.031	43.500	32.798
57.600	54.707	241.490	29.001	52.283	1.000	34.500	336.002	43.500	32.800
57.700	54.715	257.330	29.001	52.283	1.000	34.481	336.008	43.500	32.800
57.800	54.701	261.971	29.001	52.276	1.000	34.512	336.016	43.500	32.800
57.900	54.703	248.424	29.001	52.255	1.000	34.504	336.010	43.500	32.800
58.000	54.708	250.156	29.001	52.236	1.000	34.429	336.012	43.500	32.406
58.100	54.695	253.175	29.001	52.229	1.000	34.434	336.029	43.500	32.400
58.200	54.704	246.407	29.001	52.225	1.000	34.476	336.043	43.500	32.400
58.300	54.708	256.915	29.001	52.224	1.000	34.405	336.046	43.500	32.797
58.400	54.695	253.076	29.001	52.224	1.000	34.243	336.059	43.500	32.404
58.500	54.703	247.460	29.000	52.218	1.000	34.115	336.067	43.500	32.400
58.600	54.688	249.974	29.000	52.196	1.000	34.118	336.066	43.500	32.400
58.700	54.665	249.189	29.000	52.172	1.000	34.190	336.063	43.500	32.400
58.800	54.665	249.894	29.000	52.162	1.000	34.255	336.064	43.500	32.400
58.900	54.665	251.202	29.000	52.158	1.000	34.349	336.065	43.500	32.795
59.000	54.665	253.468	29.000	52.156	1.000	34.435	336.061	43.500	32.408
59.100	54.665	250.693	29.000	52.156	1.000	34.641	336.056	43.500	32.795
59.200	54.673	256.048	29.000	52.154	1.000	35.178	336.033	43.500	33.195
59.300	54.685	260.296	29.000	52.136	1.000	35.525	336.013	43.500	33.200
59.400	54.678	265.874	29.000	52.108	1.000	35.955	335.982	43.500	33.598
59.500	54.678	274.679	29.000	52.089	1.000	37.659	335.885	43.500	34.795
59.600	54.702	285.913	29.000	52.083	1.000	40.208	335.733	43.500	35.596
59.700	54.715	319.893	29.000	52.081	1.000	42.256	335.609	43.500	35.998
59.800	54.727	345.146	29.000	52.080	1.000	43.076	335.564	43.500	36.000
59.900	54.752	355.133	29.000	52.079	1.000	43.071	335.559	43.500	36.000
60.000	54.765	359.098	29.001	52.060	1.000	42.976	335.557	43.500	36.000
60.100	54.789	355.950	29.001	52.026	1.000	43.044	335.559	43.500	36.000
60.200	54.814	360.392	29.001	52.003	1.000	43.037	335.559	43.500	36.000
60.300	54.814	359.973	29.001	51.995	1.000	42.629	335.576	43.500	35.614
60.400	54.837	353.646	29.001	51.992	1.000	41.201	335.646	43.500	34.411
60.500	54.863	336.641	29.001	51.992	1.000	38.594	335.793	43.500	33.607
60.600	54.864	307.556	29.001	51.991	1.000	36.907	335.906	43.500	33.600
60.700	54.862	283.141	29.001	51.981	1.000	36.675	335.926	43.500	33.600
60.800	54.862	275.775	29.001	51.946	1.000	36.667	335.928	43.500	33.600
60.900	54.862	281.395	29.001	51.910	1.000	36.651	335.934	43.500	33.600
61.000	54.863	276.342	29.001	51.895	1.000	36.634	335.938	43.500	33.600
61.100	54.863	277.570	29.001	51.889	1.000	36.658	335.944	43.500	33.600
61.200	54.862	284.515	29.001	51.887	1.000	36.462	335.960	43.500	33.205
61.300	54.863	273.219	29.001	51.887	1.000	36.154	335.977	43.500	33.200
61.400	54.863	271.889	29.001	51.878	1.000	35.997	335.986	43.500	33.200
61.500	54.874	276.862	29.001	51.840	1.000	36.035	335.986	43.500	33.200
61.600	54.877	269.036	29.001	51.796	1.000	36.097	335.978	43.500	33.200
61.700	54.875	270.130	29.001	51.778	1.000	36.140	335.981	43.500	33.200
61.800	54.898	274.181	29.001	51.771	1.000	36.302	335.976	43.500	33.598
61.900	54.905	269.379	29.001	51.768	1.000	36.499	335.954	43.500	33.600
62.000	54.892	276.685	29.000	51.767	1.000	36.700	335.943	43.500	33.600
62.100	54.898	278.109	29.001	51.764	1.000	36.942	335.939	43.500	33.600
62.200	54.912	281.252	29.001	51.736	1.000	37.168	335.931	43.500	33.997
62.300	54.912	287.709	29.001	51.686	1.000	37.494	335.905	43.500	34.000
62.400	54.912	281.795	29.001	51.654	1.000	37.708	335.887	43.500	34.000
62.500	54.912	291.529	29.001	51.644	1.000	38.084	335.864	43.500	34.396
62.600	54.912	297.355	29.001	51.640	1.000	38.725	335.826	43.500	34.400
62.700	54.933	297.465	29.001	51.639	1.000	38.956	335.817	43.500	34.400
62.800	54.961	315.057	29.001	51.637	1.000	38.975	335.815	43.500	34.400
62.900	54.961	308.463	29.001	51.609	1.000	38.992	335.803	43.500	34.400
63.000	54.961	305.654	29.001	51.553	1.000	38.799	335.812	43.500	34.400
63.100	54.968	310.876	29.001	51.514	1.000	38.598	335.829	43.500	34.005
63.200	54.979	296.220	29.001	51.500	1.000	38.597	335.830	43.500	34.395
63.300	54.988	304.534	29.001	51.495	1.000	38.672	335.821	43.500	34.400
63.400	54.990	309.303	29.001	51.493	1.000	38.597	335.821	43.500	34.400
63.500	54.995	297.448	29.001	51.494	1.000	38.582	335.825	43.500	34.400
63.600	55.009	304.010	29.001	51.494	1.000	38.666	335.825	43.500	34.400
63.700	55.009	300.511	29.001	51.494	1.000	38.671	335.827	43.500	34.400
63.800	55.018	299.190	29.001	51.493	1.000	38.673	335.825	43.500	34.400
63.900	55.037	310.148	29.001	51.493	1.000	38.622	335.823	43.500	34.400
64.000	55.048	297.684	29.001	51.482	1.000	38.580	335.815	43.500	34.400
64.100	55.058	302.433	29.001	51.434	1.000	38.547	335.818	43.500	34.400
64.200	55.059	309.621	29.001	51.368	1.000	38.363	335.833	43.500	34.003
64.300	55.059	298.322	29.001	51.339	1.000	38.124	335.849	43.500	34.000
64.400	55.059	292.730	29.001	51.330	1.000	37.961	335.860	43.500	34.000
64.500	55.067	292.944	29.001	51.326	1.000	37.806	335.868	43.500	34.000
64.600	55.091	297.625	29.001	51.324	1.000	37.722	335.869	43.500	34.000
64.700	55.102	287.725	29.001	51.317	1.000	37.742	335.870	43.500	34.000
64.800	55.089	290.337	29.001	51.270	1.000	37.070	335.906	43.500	33.209
64.900	55.090	291.752	29.001	51.197	1.000	36.223	335.946	43.500	33.200
65.000	55.106	271.641	29.001	51.160	1.000	35.849	335.965	43.500	32.813
65.100	55.106	271.036	29.001	51.149	1.000	35.190	336.015	43.500	32.800
65.200	55.106	266.085	29.001	51.145	1.000	34.600	336.056	43.500	32.405
65.300	55.106	250.417	29.001	51.142	1.000	34.565	336.058	43.500	32.795
65.400	55.106	259.097	29.001	51.139	1.000	34.760	336.048	43.500	32.800
65.500	55.106	256.535	29.000	51.106	1.000	34.873	336.042	43.500	32.800
65.600	55.106	253.921	29.000	51.027	1.000	34.838	336.046	43.500	32.800
65.700	55.106	259.770	29.000	50.972	1.000	34.724	336.054	43.500	32.800
65.800	55.099	250.835	29.000	50.955	1.000	34.670	336.056	43.500	32.800
65.900	55.086	254.442	29.000	50.949	1.000	34.770	336.046	43.500	32.800
66.000	55.097	258.796	29.000	50.947	1.000	34.788	336.042	43.500	32.800
66.100	55.097	255.527	29.000	50.945	1.000	34.681	336.052	43.500	32.800
66.200	55.086	255.610	29.000	50.893	1.000	34.632	336.060	43.500	32.800
66.300	55.100	254.972	29.000	50.807	1.000	34.636	336.058	43.500	32.800
66.400	55.095	254.107	29.000	50.760	1.000	34.693	336.054	43.500	32.800
66.500	55.084	249.790	29.000	50.745	1.000	34.690	336.054	43.500	32.800
66.600	55.102	261.905	29.000	50.740	1.000	34.644	336.058	43.500	32.800
66.700	55.093	248.862	29.000	50.738	1.000	34.646	336.060	43.500	32.800
66.800	55.105	247.197	29.000	50.737	1.000	34.645	336.066	43.500	32.800
66.900	55.082	262.768	29.000	50.705	1.000	34.703	336.061	43.500	32.800
67.000	55.073	246.540	29.000	50.595	1.000	34.674	336.056	43.500	32.800
67.100	55.081	254.411	29.000	50.544	1.000	34.613	336.062	43.500	32.800
67.200	55.060	258.128	29.000	50.526	1.000	34.526	336.064	43.500	32.800
67.300	55.075	243.343	29.000	50.520	1.000	34.418	336.068	43.500	32.408
67.400	55.078	257.092	29.000	50.519	1.000	34.435	336.073	43.500	32.400
67.500	55.061	254.903	29.000	50.513	1.000	34.471	336.071	43.500	32.798
67.600	55.075	245.532	29.000	50.469	1.000	34.508	336.064	43.500	32.800
67.700	55.078	259.847	29.000	50.366	1.000	34.383	336.076	43.500	32.402
67.800	55.058	245.454	29.000	50.315	1.000	34.213	336.087	43.500	32.400
67.900	55.059	245.120	29.000	50.298	1.000	34.125	336.089	43.500	32.400
68.000	55.059	257.513	29.000	50.292	1.000	34.190	336.085	43.500	32.400
68.100	55.058	243.990	29.000	50.290	1.000	34.325	336.081	43.500	32.400
68.200	55.058	251.000	29.000	50.288	1.000	34.370	336.081	43.500	32.400
68.300	55.058	258.784	29.000	50.268	1.000	34.330	336.079	43.500	32.400
68.400	55.058	241.726	29.000	50.173	1.000	34.170	336.089	43.004	32.400
68.500	55.058	249.193	29.000	50.091	1.000	34.146	336.087	43.000	32.400
68.600	55.059	250.946	29.000	50.064	1.000	34.263	336.081	43.000	32.796
68.700	55.058	244.590	29.000	50.053	1.000	34.393	336.073	43.000	32.800
68.800	55.058	261.287	29.000	50.049	1.000	34.440	336.066	43.000	32.800
68.900	55.059	250.915	29.000	50.049	1.000	34.354	336.067	43.000	32.407
69.000	55.059	247.665	29.000	50.033	1.000	34.268	336.071	43.000	32.400
69.100	55.059	257.842	29.000	49.943	1.000	34.208	336.085	43.000	32.400
69.200	55.058	243.555	29.000	49.849	1.000	34.177	336.093	43.000	32.400
69.300	55.058	248.484	29.000	49.814	1.000	34.186	336.087	43.000	32.795
69.400	55.058	255.209	29.000	49.804	1.000	34.342	336.071	43.000	32.402
69.500	55.058	246.497	29.000	49.798	1.000	34.374	336.071	43.000	32.400
69.600	55.058	255.684	29.000	49.798	1.000	34.211	336.083	43.000	32.400
69.700	55.060	249.046	29.000	49.790	1.000	34.220	336.085	43.000	32.400
69.800	55.058	244.877	29.000	49.741	1.000	34.368	336.075	43.000	32.798
69.900	55.056	258.900	29.000	49.626	1.000	34.462	336.064	43.000	32.800
70.000	55.043	249.182	29.000	49.568	1.000	34.460	336.066	43.000	32.800
70.100	55.036	247.883	29.000	49.549	1.000	34.301	336.081	43.000	32.403
70.200	55.055	254.074	29.000	49.543	1.000	34.222	336.081	43.000	32.797
70.300	55.042	248.031	29.000	49.542	1.000	34.399	336.064	43.000	32.403
70.400	55.036	256.376	29.000	49.538	1.000	34.475	336.060	43.000	32.400
70.500	55.059	256.255	29.000	49.503	1.000	34.477	336.060	43.000	32.796
70.600	55.045	245.832	29.000	49.370	1.000	34.479	336.060	43.000	32.404
70.700	55.036	257.211	29.000	49.310	1.000	34.441	336.067	43.000	32.796
70.800	55.069	270.036	29.000	49.288	1.000	36.414	335.866	43.000	42.692
70.900	55.189	393.173	29.000	49.282	1.000	74.365	333.391	43.000	99.335
71.000	55.396	1082.269	29.000	49.279	1.000	123.966	330.458	43.000	100.000
71.100	55.590	1521.790	29.000	49.277	1.000	145.354	329.347	43.000	100.000
71.200	55.832	1599.197	29.000	49.263	1.000	154.135	328.789	43.000	100.000
71.300	56.076	1620.468	29.000	49.158	1.000	153.600	328.740	43.000	100.000
71.400	56.306	1592.820	29.000	49.062	1.000	153.730	328.665	43.000	100.000
71.500	56.511	1571.568	29.000	49.029	1.000	153.926	328.587	43.000	100.000
71.600	56.755	1560.833	29.000	49.017	1.000	153.938	328.523	43.000	100.000
71.700	56.953	1562.461	29.000	49.014	1.000	154.015	328.463	43.000	100.000
71.800	57.195	1557.402	29.000	49.012	1.000	153.986	328.414	43.000	100.000
71.900	57.414	1550.703	29.000	49.002	1.000	153.906	328.358	43.000	100.000
72.000	57.624	1547.659	29.001	48.910	1.000	153.787	328.313	43.000	100.000
72.100	57.824	1534.448	29.001	48.804	1.000	153.798	328.264	43.000	100.000
72.200	58.052	1519.396	29.001	48.765	1.000	153.904	328.208	43.000	100.000
72.300	58.260	1515.441	29.001	48.751	1.000	153.857	328.170	43.000	100.000
72.400	58.458	1518.790	29.001	48.747	1.000	153.841	328.135	43.000	100.000
72.500	58.682	1519.104	29.001	48.746	1.000	153.727	328.096	43.000	100.000
72.600	58.889	1517.640	29.001	48.743	1.000	153.672	328.044	43.000	100.000
72.700	59.084	1496.853	29.001	48.696	1.000	153.768	327.992	43.000	100.000
72.800	59.281	1484.930	29.001	48.565	1.000	153.914	327.945	43.000	100.000
72.900	59.509	1500.119	29.001	48.508	1.000	154.040	327.892	43.000	100.000
73.000	59.704	1487.794	29.001	48.485	1.000	154.026	327.853	43.000	100.000
73.100	59.883	1472.730	29.001	48.478	1.000	154.120	327.819	43.000	100.000
73.200	60.103	1476.833	29.001	48.477	1.000	154.295	327.770	43.000	100.000
73.300	60.288	1470.116	29.001	48.475	1.000	154.277	327.731	43.000	100.000
73.400	60.500	1464.297	29.001	48.438	1.000	154.333	327.687	43.000	100.000
73.500	60.696	1454.128	29.001	48.308	1.000	154.680	327.629	43.000	100.000
73.600	60.890	1462.478	29.001	48.243	1.000	154.934	327.574	43.000	100.000
73.700	61.084	1456.111	29.001	48.218	1.000	154.932	327.535	43.000	100.000
73.800	61.278	1442.713	29.001	48.210	1.000	154.946	327.499	43.000	100.000
73.900	61.471	1442.241	29.001	48.208	1.000	154.990	327.457	43.000	100.000
74.000	61.647	1440.206	29.001	48.207	1.000	154.943	327.430	43.000	100.000
74.100	61.821	1434.868	29.001	48.200	1.000	155.015	327.396	43.000	100.000
74.200	62.058	1429.197	29.001	48.094	1.000	155.033	327.358	43.000	100.000
74.300	62.204	1424.320	29.001	47.993	1.000	155.014	327.322	43.000	100.000
74.400	62.395	1420.814	29.001	47.957	1.000	155.055	327.279	43.000	100.000
74.500	62.601	1409.980	29.001	47.945	1.000	155.076	327.242	43.000	100.000
74.600	62.791	1406.315	29.001	47.940	1.000	155.050	327.205	43.000	100.000
74.700	62.939	1406.174	29.001	47.939	1.000	154.971	327.181	43.000	100.000
74.800	63.134	1395.045	29.001	47.935	1.000	155.075	327.150	43.000	100.000
74.900	63.296	1391.045	29.001	47.839	1.000	155.225	327.103	43.000	100.000
75.000	63.525	1388.980	29.001	47.732	1.000	155.248	327.069	43.000	100.000
75.100	63.669	1388.414	29.001	47.692	1.000	155.170	327.042	43.000	100.000
75.200	63.864	1378.921	29.001	47.678	1.000	155.125	327.019	43.000	100.000
75.300	64.028	1372.320	29.001	47.673	1.000	155.136	326.987	43.000	100.000
75.400	64.208	1367.355	29.001	47.672	1.000	155.091	326.953	42.502	100.000
75.500	64.387	1369.375	29.001	47.671	1.000	155.132	326.919	42.500	100.000
75.600	64.562	1361.606	29.000	47.630	1.000	155.083	326.886	42.500	100.000
75.700	64.708	1356.256	29.001	47.507	1.000	154.930	326.866	42.500	100.000
75.800	64.882	1350.098	29.001	47.449	1.000	154.926	326.829	42.500	100.000
75.900	65.083	1343.297	29.001	47.426	1.000	155.188	326.777	42.500	100.000
76.000	65.246	1351.055	29.001	47.418	1.000	155.475	326.737	42.500	100.000
76.100	65.392	1342.494	29.001	47.416	1.000	155.501	326.714	42.500	100.000
76.200	65.570	1333.482	29.001	47.416	1.000	155.398	326.692	42.500	100.000
76.300	65.717	1330.476	29.001	47.387	1.000	155.258	326.670	42.500	100.000
76.400	65.908	1328.797	29.000	47.267	1.000	155.257	326.642	42.500	100.000
76.500	66.074	1319.869	29.000	47.197	1.000	155.326	326.605	42.500	100.000
76.600	66.255	1317.690	29.000	47.174	1.000	155.439	326.565	42.500	100.000
76.700	66.399	1315.805	29.001	47.166	1.000	155.365	326.540	42.500	95.647
76.800	66.513	1303.780	29.000	47.162	1.000	135.955	327.463	42.500	57.221
76.900	66.580	1051.801	29.000	47.161	1.000	89.392	330.042	42.500	35.417
77.000	66.537	501.112	29.001	47.157	1.000	42.512	332.935	42.500	25.510
77.100	66.454	71.762	29.001	47.059	1.000	12.039	334.914	42.500	21.251
77.200	66.358	-139.160	29.001	46.967	1.000	4.344	335.526	42.500	20.812
77.300	66.261	-180.881	29.001	46.931	1.000	4.625	335.537	42.500	21.984
77.400	66.164	-101.312	29.001	46.918	1.000	1.152	335.808	42.500	25.188
77.500	66.100	-219.703	29.001	46.914	1.000	7.528	335.511	42.500	27.589
77.600	66.014	-28.907	29.001	46.912	1.000	18.652	334.929	42.500	28.396
77.700	65.964	67.840	29.001	46.908	1.000	20.330	334.889	42.500	28.002
77.800	65.917	15.777	29.002	46.829	1.000	18.305	335.033	42.500	28.000
77.900	65.854	-3.554	29.003	46.728	1.000	18.424	335.068	42.500	28.397
78.000	65.806	12.078	29.003	46.687	1.000	19.296	335.050	42.500	28.010
78.100	65.722	21.019	29.003	46.671	1.000	19.116	335.090	42.500	28.000
78.200	65.672	12.147	29.003	46.667	1.000	17.651	335.194	42.500	26.413
78.300	65.609	-11.494	29.003	46.665	1.000	13.908	335.429	42.500	23.624
78.400	65.526	-60.273	29.003	46.663	1.000	9.388	335.726	42.500	23.204
78.500	65.434	-103.908	29.003	46.628	1.000	7.271	335.889	42.500	22.408
78.600	65.381	-112.506	29.004	46.515	1.000	6.831	335.946	42.500	22.400
78.700	65.288	-118.791	29.004	46.454	1.000	6.837	335.975	42.500	22.789
78.800	65.222	-114.533	29.004	46.430	1.000	7.537	335.956	42.500	23.967
78.900	65.130	-100.147	29.004	46.420	1.000	9.487	335.862	42.500	24.395
79.000	65.073	-64.656	29.004	46.417	1.000	11.657	335.762	42.500	25.177
79.100	64.996	-55.404	29.004	46.416	1.000	13.346	335.688	42.500	25.990
79.200	64.931	-39.730	29.005	46.389	1.000	15.530	335.582	42.500	27.568
79.300	64.880	-2.800	29.005	46.278	1.000	19.168	335.371	42.500	29.968
79.400	64.832	45.619	29.005	46.211	1.000	23.921	335.108	42.500	30.797
79.500	64.797	88.928	29.005	46.185	1.000	26.800	334.960	42.500	31.198
79.600	64.780	105.176	29.005	46.174	1.000	28.365	334.871	42.500	32.394
79.700	64.734	127.546	29.005	46.171	1.000	30.875	334.727	42.500	33.594
79.800	64.686	159.710	29.005	46.170	1.000	34.457	334.505	42.500	35.986
79.900	64.680	200.443	29.005	46.166	1.000	39.051	334.228	42.500	37.590
80.000	64.680	249.503	29.006	46.080	1.000	43.338	333.991	42.500	39.162
80.100	64.681	292.015	29.006	45.993	1.000	47.119	333.776	42.500	40.391
80.200	64.681	329.908	29.007	45.949	1.000	51.148	333.533	42.500	42.384
80.300	64.680	373.576	29.007	45.935	1.000	54.811	333.304	42.500	43.193
80.400	64.709	404.474	29.007	45.931	1.000	56.351	333.218	42.500	43.200
80.500	64.727	409.393	29.007	45.929	1.000	56.874	333.182	42.500	43.200
80.600	64.730	412.095	29.007	45.925	1.000	57.597	333.129	42.500	43.992
80.700	64.750	421.341	29.008	45.853	1.000	58.309	333.082	42.500	44.000
80.800	64.774	424.829	29.008	45.757	1.000	58.489	333.059	42.500	44.000
80.900	64.778	425.849	29.009	45.711	1.000	58.441	333.053	42.500	43.605
81.000	64.778	425.356	29.008	45.694	1.000	56.007	333.177	42.500	41.269
81.100	64.777	391.722	29.008	45.689	1.000	52.467	333.380	42.500	40.805
81.200	64.778	354.740	29.009	45.686	1.000	51.868	333.438	42.500	41.590
81.300	64.798	362.719	29.009	45.684	1.000	53.150	333.362	42.500	42.389
81.400	64.809	379.197	29.010	45.654	1.000	54.341	333.293	42.500	42.400
81.500	64.824	386.967	29.011	45.548	1.000	54.367	333.288	42.500	42.002
81.600	64.826	387.152	29.011	45.482	1.000	53.389	333.339	42.500	41.204
81.700	64.826	369.789	29.011	45.456	1.000	51.107	333.461	42.500	40.006
81.800	64.814	343.346	29.011	45.446	1.000	49.427	333.562	42.500	40.000
81.900	64.823	332.475	29.011	45.443	1.000	49.117	333.586	42.500	40.000
82.000	64.806	330.163	29.011	45.442	1.000	49.479	333.563	42.500	40.397
82.100	64.822	336.605	29.012	45.418	1.000	50.471	333.509	42.500	41.193
82.200	64.814	350.850	29.012	45.315	1.000	51.848	333.426	42.500	41.594
82.300	64.825	369.374	29.012	45.243	1.000	53.472	333.332	42.500	42.392
82.400	64.827	376.413	29.013	45.215	1.000	54.513	333.273	42.500	42.400
82.500	64.846	386.573	29.013	45.205	1.000	54.946	333.242	42.500	42.400
82.600	64.831	394.691	29.013	45.202	1.000	54.950	333.240	42.500	42.400
82.700	64.864	395.447	29.012	45.201	1.000	54.498	333.264	42.500	42.004
82.800	64.855	383.383	29.013	45.197	1.000	53.285	333.316	42.500	40.813
82.900	64.869	363.930	29.014	45.119	1.000	51.264	333.426	42.500	40.405
83.000	64.862	347.385	29.013	45.029	1.000	50.223	333.505	42.500	40.400
83.100	64.871	342.251	29.014	44.985	1.000	50.188	333.510	42.500	40.795
83.200	64.855	344.014	29.014	44.970	1.000	50.789	333.478	42.500	41.195
83.300	64.870	350.124	29.014	44.963	1.000	52.075	333.408	42.500	41.595
83.400	64.875	364.395	29.014	44.962	1.000	52.766	333.362	42.500	41.202
83.500	64.874	367.963	29.014	44.959	1.000	51.240	333.439	42.500	40.006
83.600	64.856	345.059	29.015	44.895	1.000	48.437	333.601	42.500	39.204
83.700	64.868	317.081	29.015	44.802	1.000	46.572	333.725	42.500	38.802
83.800	64.838	298.445	29.015	44.751	1.000	45.723	333.777	42.500	38.800
83.900	64.828	293.363	29.015	44.733	1.000	45.873	333.764	42.500	38.800
84.000	64.838	302.036	29.015	44.727	1.000	46.487	333.738	42.500	39.193
84.100	64.830	309.714	29.015	44.725	1.000	47.380	333.688	42.500	39.597
84.200	64.827	315.993	29.015	44.725	1.000	50.280	333.498	42.500	41.981
84.300	64.826	360.335	29.016	44.695	1.000	54.366	333.254	42.500	43.190
84.400	64.846	399.638	29.017	44.596	1.000	56.105	333.157	42.500	43.200
84.500	64.869	410.411	29.017	44.528	1.000	57.073	333.091	42.500	43.596
84.600	64.874	415.523	29.017	44.502	1.000	58.035	333.032	42.500	43.996
84.700	64.874	423.081	29.017	44.491	1.000	58.084	333.031	42.500	44.000
84.800	64.893	423.444	29.017	44.489	1.000	58.037	333.028	42.500	43.604
84.900	64.916	417.854	29.016	44.487	1.000	57.969	333.022	42.500	43.600
85.000	64.941	420.048	29.017	44.466	1.000	57.912	333.016	42.500	43.600
85.100	64.930	424.931	29.018	44.373	1.000	57.740	333.026	42.500	43.600
85.200	64.960	423.280	29.018	44.300	1.000	57.404	333.047	42.500	43.205
85.300	64.973	408.719	29.019	44.268	1.000	55.661	333.135	42.500	42.016
85.400	64.973	387.203	29.019	44.258	1.000	53.289	333.267	42.500	41.203
85.500	64.972	372.761	29.019	44.255	1.000	52.251	333.338	42.500	41.200
85.600	64.973	362.399	29.019	44.254	1.000	51.799	333.369	42.500	41.200
85.700	64.973	355.656	29.019	44.249	1.000	51.589	333.381	42.500	41.200
85.800	64.972	356.607	29.020	44.181	1.000	51.499	333.389	42.500	40.802
85.900	64.972	359.040	29.021	44.090	1.000	51.370	333.393	42.500	40.800
86.000	64.972	355.303	29.021	44.046	1.000	51.153	333.405	42.500	40.800
86.100	64.973	348.251	29.021	44.028	1.000	50.558	333.442	42.500	40.403
86.200	64.972	342.624	29.021	44.021	1.000	49.972	333.476	42.500	40.400
86.300	64.972	340.927	29.021	44.019	1.000	49.694	333.489	42.500	40.400
86.400	64.973	338.240	29.021	44.017	1.000	49.475	333.501	42.500	40.004
86.500	64.973	334.653	29.023	43.958	1.000	49.261	333.511	42.500	40.000
86.600	64.972	334.709	29.023	43.868	1.000	49.165	333.521	42.500	40.000
86.700	64.972	333.771	29.023	43.815	1.000	49.216	333.520	42.500	40.000
86.800	64.971	332.911	29.023	43.798	1.000	49.313	333.514	42.500	40.000
86.900	64.954	332.289	29.023	43.792	1.000	49.226	333.517	42.500	40.000
87.000	64.964	331.800	29.023	43.791	1.000	49.149	333.525	42.500	40.000
87.100	64.973	330.379	29.023	43.789	1.000	49.187	333.523	42.500	40.000
87.200	64.972	329.729	29.024	43.762	1.000	49.266	333.514	42.500	40.395
87.300	64.956	332.364	29.025	43.675	1.000	49.366	333.507	42.500	40.400
87.400	64.964	334.744	29.026	43.606	1.000	49.384	333.503	42.500	40.400
87.500	64.972	332.850	29.026	43.576	1.000	49.369	333.510	42.500	40.400
87.600	64.961	337.679	29.026	43.566	1.000	49.473	333.506	42.500	40.400
87.700	64.950	338.466	29.026	43.563	1.000	49.917	333.482	42.500	40.400
87.800	64.965	339.623	29.026	43.562	1.000	50.500	333.442	42.500	40.798
87.900	64.973	342.952	29.026	43.544	1.000	50.607	333.429	42.500	40.800
88.000	64.962	347.425	29.027	43.462	1.000	50.662	333.426	42.500	40.800
88.100	64.967	348.555	29.028	43.386	1.000	50.846	333.416	42.500	40.800
88.200	64.973	348.815	29.028	43.355	1.000	50.728	333.424	42.500	40.800
88.300	64.973	345.911	29.028	43.344	1.000	50.643	333.425	42.500	40.800
88.400	64.962	348.964	29.028	43.339	1.000	50.784	333.420	42.500	40.800
88.500	64.966	349.935	29.028	43.337	1.000	50.807	333.420	42.500	40.800
88.600	64.957	347.876	29.028	43.334	1.000	50.828	333.413	42.500	40.800
88.700	64.963	349.588	29.028	43.273	1.000	50.804	333.409	42.005	40.800
88.800	64.962	351.322	29.028	43.190	1.000	50.666	333.420	42.000	40.800
88.900	64.967	348.846	29.028	43.145	1.000	50.605	333.422	42.000	40.800
89.000	64.956	346.812	29.028	43.127	1.000	50.633	333.419	42.000	40.800
89.100	64.962	346.694	29.028	43.122	1.000	50.649	333.417	42.000	40.800
89.200	64.963	346.512	29.028	43.119	1.000	50.576	333.423	42.000	40.800
89.300	64.967	343.542	29.028	43.116	1.000	50.592	333.417	42.000	40.800
89.400	64.957	346.049	29.029	43.067	1.000	50.643	333.411	42.000	40.800
89.500	64.963	348.008	29.030	42.986	1.000	50.719	333.404	42.000	40.800
89.600	64.973	347.756	29.030	42.935	1.000	50.734	333.399	42.000	40.800
89.700	64.974	346.901	29.030	42.916	1.000	50.733	333.396	42.000	40.800
89.800	64.957	348.662	29.030	42.909	1.000	50.978	333.381	42.000	40.800
89.900	64.964	351.053	29.030	42.907	1.000	51.482	333.352	42.000	41.196
90.000	64.973	355.091	29.030	42.906	1.000	51.790	333.328	42.000	41.200
90.100	64.972	360.153	29.031	42.886	1.000	51.868	333.323	42.000	41.200
90.200	64.972	364.505	29.031	42.810	1.000	52.011	333.314	42.000	41.200
90.300	64.972	367.155	29.032	42.742	1.000	52.030	333.312	42.000	41.200
90.400	64.973	359.874	29.032	42.714	1.000	51.919	333.321	42.000	41.200
90.500	64.973	358.524	29.032	42.704	1.000	51.930	333.319	42.000	41.200
90.600	64.981	360.748	29.031	42.701	1.000	52.013	333.314	42.000	41.200
90.700	64.995	361.479	29.032	42.699	1.000	52.095	333.308	42.000	41.200
90.800	64.997	362.297	29.032	42.683	1.000	52.321	333.287	42.000	41.597
90.900	65.003	365.727	29.033	42.613	1.000	52.430	333.273	42.000	41.600
91.000	65.002	366.929	29.033	42.544	1.000	52.374	333.273	42.000	41.211
91.100	65.011	363.491	29.033	42.514	1.000	52.298	333.277	42.000	41.200
91.200	65.020	363.118	29.034	42.503	1.000	52.185	333.278	42.000	41.200
91.300	65.013	364.721	29.033	42.500	1.000	52.058	333.283	42.000	41.200
91.400	65.016	362.629	29.033	42.498	1.000	52.004	333.288	42.000	41.200
91.500	65.022	359.299	29.034	42.495	1.000	52.059	333.280	42.000	41.200
91.600	65.021	361.139	29.034	42.447	1.000	52.121	333.271	42.000	41.200
91.700	65.021	364.341	29.035	42.374	1.000	52.181	333.269	42.000	41.200
91.800	65.021	364.234	29.035	42.330	1.000	52.064	333.278	42.000	41.200
91.900	65.021	361.349	29.035	42.315	1.000	51.979	333.282	42.000	41.200
92.000	65.021	360.693	29.035	42.309	1.000	52.009	333.283	42.000	41.200
92.100	65.020	361.971	29.035	42.307	1.000	52.024	333.285	42.000	41.200
92.200	65.021	362.478	29.035	42.305	1.000	51.938	333.285	42.000	41.200
92.300	65.021	359.384	29.035	42.267	1.000	51.891	333.282	42.000	41.200
92.400	65.034	357.947	29.035	42.197	1.000	51.980	333.272	42.000	41.200
92.500	65.031	360.864	29.035	42.148	1.000	52.016	333.265	42.000	41.200
92.600	65.020	362.528	29.035	42.130	1.000	52.003	333.263	42.000	41.200
92.700	65.034	361.641	29.035	42.124	1.000	52.023	333.259	42.000	41.200
92.800	65.058	361.815	29.035	42.122	1.000	52.062	333.257	42.000	41.200
92.900	65.069	363.380	29.035	42.121	1.000	51.932	333.260	42.000	41.200
93.000	65.061	363.129	29.035	42.106	1.000	51.928	333.257	42.000	41.200
93.100	65.050	361.395	29.036	42.046	1.000	51.997	333.256	42.000	41.200
93.200	65.059	361.653	29.036	41.985	1.000	51.959	333.257	42.000	41.200
93.300	65.069	363.370	29.036	41.958	1.000	51.610	333.268	42.000	40.802
93.400	65.070	360.147	29.036	41.950	1.000	50.833	333.305	42.000	40.402
93.500	65.071	349.832	29.036	41.946	1.000	50.007	333.358	42.000	40.004
93.600	65.070	339.131	29.036	41.945	1.000	49.168	333.414	42.000	40.000
93.700	65.069	332.038	29.036	41.939	1.000	48.111	333.486	42.000	39.603
93.800	65.062	325.166	29.037	41.889	1.000	47.272	333.532	42.000	39.203
93.900	65.046	316.036	29.037	41.826	1.000	46.780	333.558	42.000	39.200
94.000	65.028	308.084	29.037	41.792	1.000	46.408	333.578	42.000	39.200
94.100	65.020	306.936	29.037	41.779	1.000	46.258	333.592	42.000	38.804
94.200	65.020	310.910	29.037	41.775	1.000	45.554	333.640	42.000	38.407
94.300	65.021	305.840	29.037	41.774	1.000	44.066	333.729	42.000	37.609
94.400	65.004	284.379	29.037	41.773	1.000	42.272	333.836	42.000	36.809
94.500	64.980	262.533	29.038	41.742	1.000	40.505	333.943	42.000	36.009
94.600	64.955	246.689	29.038	41.680	1.000	35.771	334.171	42.000	30.864
94.700	64.913	202.524	29.038	41.637	1.000	18.402	335.168	42.000	1.172
94.800	64.840	47.606	29.038	41.621	1.000	6.127	335.942	42.000	0.010
94.900	64.760	-119.081	29.038	41.615	1.000	1.496	336.241	42.000	0.000
95.000	64.661	-157.511	29.038	41.613	1.000	-5.950	336.708	42.000	0.000
95.100	64.548	-231.317	29.038	41.611	1.000	-13.745	337.179	42.000	0.000
95.200	64.409	-351.477	29.038	41.587	1.000	-30.178	338.142	42.000	0.000
95.300	64.241	-517.160	29.038	41.529	1.000	-44.925	339.109	42.000	0.000
95.400	64.048	-721.349	29.038	41.481	1.000	-47.508	339.371	42.000	0.000
95.500	63.831	-777.085	29.038	41.463	1.000	-47.010	339.404	42.000	0.000
95.600	63.642	-757.156	29.038	41.457	1.000	-47.243	339.464	42.000	0.000
95.700	63.471	-766.500	29.038	41.455	1.000	-47.298	339.502	42.000	0.000
95.800	63.287	-767.885	29.038	41.455	1.000	-47.356	339.554	42.000	0.000
95.900	63.092	-767.190	29.039	41.446	1.000	-47.494	339.607	42.000	0.000
96.000	62.905	-773.908	29.039	41.398	1.000	-47.539	339.644	42.000	0.000
96.100	62.711	-776.634	29.039	41.340	1.000	-47.615	339.702	42.000	0.000
96.200	62.513	-775.911	29.039	41.312	1.000	-47.683	339.752	42.000	0.000
96.300	62.312	-778.691	29.039	41.301	1.000	-47.734	339.788	42.000	0.000
96.400	62.135	-784.952	29.039	41.298	1.000	-47.678	339.824	42.000	0.000
96.500	61.960	-785.178	29.039	41.296	1.000	-47.572	339.851	42.000	0.000
96.600	61.770	-782.003	29.039	41.289	1.000	-47.641	339.885	42.000	0.000
96.700	61.586	-785.392	29.040	41.248	1.000	-47.563	339.911	42.000	0.000
96.800	61.392	-786.790	29.040	41.188	1.000	-47.269	339.933	42.000	0.000
96.900	61.194	-781.926	29.040	41.158	1.000	-47.173	339.958	42.000	0.000
97.000	61.002	-781.275	29.040	41.148	1.000	-47.094	339.983	42.000	0.000
97.100	60.831	-786.182	29.040	41.144	1.000	-46.872	340.006	42.000	0.000
97.200	60.659	-787.633	29.040	41.143	1.000	-46.730	340.025	42.000	0.000
97.300	60.462	-785.710	29.040	41.141	1.000	-46.534	340.036	42.000	0.000
97.400	60.267	-786.043	29.041	41.116	1.000	-46.355	340.055	42.000	0.000
97.500	60.089	-787.754	29.041	41.062	1.000	-46.223	340.078	42.000	0.000
97.600	59.913	-782.904	29.041	41.019	1.000	-45.993	340.091	42.000	0.000
97.700	59.723	-782.350	29.041	41.003	1.000	-45.795	340.113	42.000	0.000
97.800	59.533	-786.732	29.041	40.997	1.000	-45.678	340.132	42.000	0.000
97.900	59.339	-785.508	29.041	40.995	1.000	-45.520	340.146	42.000	0.000
98.000	59.153	-781.509	29.041	40.994	1.000	-45.357	340.161	42.000	0.000
98.100	58.976	-778.978	29.041	40.976	1.000	-45.090	340.177	42.000	0.000
98.200	58.800	-785.353	29.041	40.924	1.000	-44.846	340.190	42.000	0.000
98.300	58.616	-777.314	29.041	40.877	1.000	-44.728	340.204	42.000	0.000
98.400	58.422	-772.423	29.041	40.859	1.000	-44.617	340.223	42.000	0.000
98.500	58.247	-787.250	29.041	40.853	1.000	-44.511	340.249	42.000	0.000
98.600	58.081	-788.199	29.041	40.851	1.000	-44.482	340.267	42.000	0.000
98.700	57.886	-778.648	29.041	40.851	1.000	-45.740	340.344	42.000	0.000
98.800	57.691	-790.863	29.041	40.842	1.000	-48.713	340.544	42.000	0.000
98.900	57.500	-835.604	29.041	40.804	1.000	-50.953	340.713	42.000	0.000
99.000	57.309	-888.296	29.041	40.749	1.000	-51.812	340.794	42.000	0.000
99.100	57.105	-918.546	29.041	40.721	1.000	-54.178	340.950	42.000	0.000
99.200	56.893	-949.899	29.041	40.712	1.000	-58.459	341.228	42.000	0.000
99.300	56.646	-1026.376	29.041	40.709	1.000	-61.829	341.468	42.000	0.000
99.400	56.402	-1109.180	29.041	40.708	1.000	-63.254	341.595	42.000	0.000
99.500	56.159	-1136.245	29.041	40.701	1.000	-63.397	341.641	42.000	0.000
99.600	55.923	-1131.347	29.041	40.669	1.000	-63.138	341.657	42.000	0.000
99.700	55.689	-1111.388	29.041	40.614	1.000	-62.724	341.658	42.000	0.000
99.800	55.458	-1097.728	29.041	40.586	1.000	-62.154	341.657	42.000	0.000
99.900	55.238	-1107.973	29.041	40.577	1.000	-61.718	341.662	42.000	0.000
100.000	54.996	-1112.315	29.041	40.572	1.000	-61.437	341.675	42.000	0.000
100.100	54.755	-1094.703	29.041	40.571	1.000	-61.152	341.692	42.000	0.000
100.200	54.533	-1097.201	29.041	40.570	1.000	-60.750	341.695	42.000	0.000
100.300	54.314	-1098.714	29.041	40.552	1.000	-60.341	341.698	42.000	0.000
100.400	54.080	-1083.237	29.041	40.503	1.000	-59.991	341.710	42.000	0.000
100.500	53.851	-1089.743	29.041	40.461	1.000	-59.762	341.721	42.000	0.000
100.600	53.620	-1085.330	29.041	40.444	1.000	-59.474	341.725	42.000	0.000
100.700	53.371	-1084.883	29.041	40.440	1.000	-59.070	341.727	42.000	0.000
100.800	53.140	-1084.287	29.041	40.437	1.000	-58.780	341.729	42.000	0.000
100.900	52.903	-1079.333	29.041	40.436	1.000	-58.555	341.739	42.000	0.000
101.000	52.677	-1081.978	29.041	40.412	1.000	-58.137	341.744	42.000	0.000
101.100	52.448	-1072.815	29.041	40.360	1.000	-57.552	341.738	42.000	0.000
101.200	52.204	-1066.464	29.041	40.323	1.000	-56.451	341.694	42.000	0.000
101.300	51.978	-1050.070	29.041	40.310	1.000	-54.198	341.576	42.000	0.000
101.400	51.769	-1001.175	29.041	40.307	1.000	-51.358	341.435	42.000	0.000
101.500	51.563	-965.503	29.041	40.305	1.000	-49.360	341.345	42.489	0.000
101.600	51.358	-935.524	29.041	40.305	1.000	-48.450	341.309	42.500	0.000
101.700	51.158	-934.699	29.041	40.292	1.000	-48.091	341.300	42.500	0.000
101.800	50.951	-930.548	29.040	40.234	1.000	-47.906	341.302	42.500	0.000
101.900	50.750	-922.045	29.040	40.198	1.000	-47.673	341.308	42.500	0.000
102.000	50.544	-933.265	29.041	40.184	1.000	-47.402	341.313	42.500	0.000
102.100	50.328	-919.622	29.040	40.180	1.000	-47.200	341.327	42.500	0.000
102.200	50.106	-929.901	29.041	40.178	1.000	-47.021	341.332	42.500	0.000
102.300	49.919	-925.442	29.040	40.178	1.000	-46.767	341.333	42.500	0.000
102.400	49.690	-923.543	29.040	40.158	1.000	-46.641	341.344	42.500	0.000
102.500	49.517	-929.712	29.039	40.101	1.000	-46.595	341.356	42.500	0.000
102.600	49.316	-923.542	29.040	40.071	1.000	-46.536	341.372	42.500	0.000
102.700	49.129	-938.665	29.040	40.059	1.000	-46.305	341.379	42.500	0.000
102.800	48.920	-925.003	29.040	40.056	1.000	-46.073	341.381	42.500	0.000
102.900	48.717	-932.148	29.039	40.054	1.000	-45.986	341.381	42.500	0.000
103.000	48.551	-931.956	29.039	40.054	1.000	-45.759	341.383	42.500	0.000
103.100	48.356	-922.958	29.039	40.047	1.000	-45.317	341.387	42.500	0.000
103.200	48.158	-924.616	29.039	40.006	1.000	-45.037	341.393	42.500	0.000
103.300	47.963	-912.655	29.039	39.957	1.000	-44.768	341.394	42.500	0.000
103.400	47.771	-929.567	29.039	39.938	1.000	-44.241	341.383	42.500	0.000
103.500	47.574	-912.519	29.039	39.931	1.000	-44.062	341.387	42.500	0.000
103.600	47.380	-921.833	29.039	39.929	1.000	-44.064	341.401	42.500	0.000
103.700	47.189	-914.890	29.039	39.927	1.000	-43.929	341.408	42.500	0.000
103.800	47.010	-915.233	29.039	39.920	1.000	-43.689	341.410	42.500	0.000
103.900	46.850	-914.857	29.038	39.884	1.000	-43.419	341.402	42.500	0.000
104.000	46.648	-908.900	29.038	39.834	1.000	-43.297	341.411	42.500	0.000
104.100	46.455	-921.009	29.038	39.817	1.000	-43.160	341.428	42.500	0.000
104.200	46.259	-907.348	29.038	39.810	1.000	-42.965	341.434	42.500	0.000
104.300	46.065	-919.890	29.038	39.808	1.000	-42.744	341.431	42.500	0.000
104.400	45.876	-906.180	29.038	39.807	1.000	-42.509	341.432	42.500	0.000
104.500	45.716	-919.469	29.038	39.805	1.000	-42.308	341.435	42.500	0.000
104.600	45.517	-903.834	29.038	39.785	1.000	-42.147	341.445	42.500	0.000
104.700	45.336	-917.437	29.038	39.730	1.000	-41.928	341.455	42.500	0.000
104.800	45.141	-906.380	29.038	39.702	1.000	-41.680	341.451	42.500	0.000
104.900	44.949	-914.957	29.038	39.692	1.000	-41.475	341.445	42.500	0.000
105.000	44.754	-909.118	29.038	39.688	1.000	-41.328	341.447	42.500	0.000
105.100	44.562	-908.559	29.038	39.687	1.000	-41.132	341.455	42.500	0.000
105.200	44.371	-906.393	29.038	39.686	1.000	-40.862	341.457	42.500	0.000
105.300	44.226	-912.365	29.038	39.672	1.000	-40.683	341.459	42.500	0.000
105.400	44.023	-919.490	29.038	39.620	1.000	-40.519	341.468	42.500	0.000
105.500	43.830	-898.169	29.038	39.591	1.000	-40.350	341.472	42.500	0.000
105.600	43.635	-914.208	29.038	39.580	1.000	-40.230	341.476	42.500	0.000
105.700	43.458	-902.743	29.038	39.576	1.000	-40.099	341.484	42.500	0.000
105.800	43.294	-916.206	29.038	39.575	1.000	-39.883	341.490	42.500	0.000
105.900	43.100	-903.462	29.038	39.575	1.000	-39.992	341.505	42.500	0.000
106.000	42.907	-934.695	29.038	39.569	1.000	-40.788	341.564	42.500	0.000
106.100	42.712	-943.880	29.037	39.531	1.000	-41.360	341.616	42.500	0.000
106.200	42.518	-969.911	29.037	39.491	1.000	-41.249	341.620	42.500	0.000
106.300	42.334	-950.120	29.037	39.475	1.000	-41.107	341.631	42.500	0.000
106.400	42.126	-969.812	29.037	39.470	1.000	-41.177	341.657	42.500	0.000
106.500	41.945	-957.602	29.037	39.468	1.000	-41.327	341.676	42.500	0.000
106.600	41.751	-988.054	29.037	39.468	1.000	-41.783	341.713	42.500	0.000
106.700	41.554	-990.643	29.037	39.465	1.000	-42.395	341.765	42.500	0.000
106.800	41.347	-1020.150	29.037	39.435	1.000	-42.590	341.792	42.500	0.000
106.900	41.152	-1004.856	29.036	39.394	1.000	-42.426	341.791	42.500	0.000
107.000	40.961	-1021.729	29.037	39.378	1.000	-42.399	341.800	42.500	0.000
107.100	40.760	-1025.790	29.037	39.373	1.000	-43.558	341.885	42.500	0.000
107.200	40.532	-1073.020	29.037	39.371	1.000	-44.753	341.976	42.500	0.000
107.300	40.324	-1087.371	29.037	39.370	1.000	-44.735	341.998	42.500	0.000
107.400	40.129	-1080.881	29.037	39.368	1.000	-44.427	341.996	42.500	0.000
107.500	39.934	-1085.442	29.036	39.357	1.000	-44.050	341.989	42.500	0.000
107.600	39.689	-1069.830	29.036	39.314	1.000	-43.751	341.985	42.500	0.000
107.700	39.501	-1082.383	29.035	39.291	1.000	-43.518	341.983	42.500	0.000
107.800	39.302	-1061.030	29.036	39.283	1.000	-43.165	341.981	42.500	0.000
107.900	39.106	-1085.614	29.036	39.279	1.000	-42.758	341.971	42.500	0.000
108.000	38.860	-1051.471	29.036	39.278	1.000	-42.146	341.944	42.500	0.000
108.100	38.669	-1071.560	29.036	39.278	1.000	-41.620	341.930	42.500	0.000
108.200	38.476	-1040.386	29.035	39.269	1.000	-41.380	341.930	42.500	0.000
108.300	38.278	-1064.547	29.034	39.232	1.000	-41.157	341.928	42.500	0.000
108.400	38.085	-1048.204	29.034	39.210	1.000	-40.927	341.930	42.500	0.000
108.500	37.872	-1062.704	29.034	39.202	1.000	-40.719	341.928	42.500	0.000
108.600	37.679	-1060.451	29.034	39.201	1.000	-40.530	341.936	42.500	0.000
108.700	37.442	-1046.031	29.034	39.200	1.000	-40.321	341.948	42.500	0.000
108.800	37.248	-1075.947	29.034	39.200	1.000	-40.069	341.946	42.500	0.000
108.900	37.057	-1040.126	29.034	39.198	1.000	-39.789	341.935	42.500	0.000
109.000	36.859	-1075.408	29.033	39.175	1.000	-39.510	341.923	42.500	0.000
109.100	36.663	-1038.810	29.033	39.146	1.000	-39.178	341.921	42.500	0.000
109.200	36.468	-1055.971	29.033	39.137	1.000	-38.484	341.886	42.500	0.000
109.300	36.309	-993.526	29.033	39.133	1.000	-31.540	341.478	42.500	0.000
109.400	36.165	-737.904	29.033	39.130	1.000	-24.375	341.071	42.500	0.000
109.500	36.022	-673.822	29.033	39.130	1.000	-23.554	341.034	42.500	0.000
109.600	35.883	-678.885	29.033	39.129	1.000	-23.397	341.030	42.500	0.000
109.700	35.742	-707.292	29.032	39.114	1.000	-23.296	341.032	42.500	0.000
109.800	35.627	-671.730	29.031	39.088	1.000	-22.287	340.970	42.500	1.190
109.900	35.479	-657.780	29.031	39.079	1.000	-19.402	340.779	42.500	2.786
110.000	35.416	-564.240	29.031	39.076	1.000	-14.784	340.510	42.500	3.967
110.100	35.319	-424.120	29.031	39.073	1.000	-10.286	340.254	42.500	5.584
110.200	35.268	-372.452	29.031	39.073	1.000	-5.515	339.968	42.500	8.767
110.300	35.221	-216.877	29.031	39.073	1.000	-1.152	339.709	42.500	11.174
110.400	35.170	-175.354	29.031	39.067	1.000	2.315	339.484	42.500	13.573
110.500	35.169	-102.670	29.030	39.044	1.000	7.708	339.153	42.500	15.972
110.600	35.156	70.641	29.030	39.033	1.000	12.847	338.829	42.500	18.371
110.700	35.171	103.029	29.030	39.029	1.000	16.941	338.563	42.500	21.558
110.800	35.220	246.226	29.030	39.026	1.000	22.301	338.253	42.500	23.179
110.900	35.254	301.900	29.030	39.025	1.000	25.840	338.034	42.500	23.594
111.000	35.301	346.340	29.030	39.026	1.000	25.498	338.025	42.500	21.648
111.100	35.318	309.237	29.029	39.023	1.000	21.640	338.230	42.500	18.417
111.200	35.319	192.532	29.028	39.006	1.000	17.536	338.468	42.500	18.400
111.300	35.319	166.680	29.028	38.996	1.000	15.871	338.563	42.500	16.809
111.400	35.319	112.866	29.028	38.992	1.000	14.042	338.666	42.500	16.403
111.500	35.319	109.041	29.028	38.991	1.000	13.099	338.717	42.500	16.400
111.600	35.319	77.576	29.028	38.989	1.000	13.266	338.705	42.500	16.400
111.700	35.319	92.624	29.028	38.990	1.000	13.543	338.690	42.500	16.400
111.800	35.319	112.262	29.027	38.990	1.000	13.393	338.693	42.500	16.003
111.900	35.319	71.616	29.026	38.982	1.000	12.437	338.742	42.500	15.603
112.000	35.287	81.598	29.026	38.972	1.000	11.122	338.812	42.500	14.042
112.100	35.269	27.501	29.026	38.968	1.000	8.525	338.959	42.500	12.416
112.200	35.238	-16.836	29.026	38.965	1.000	6.495	339.072	42.500	12.796
112.300	35.222	-37.855	29.026	38.965	1.000	7.651	339.000	42.500	14.383
112.400	35.221	-8.579	29.026	38.965	1.000	10.755	338.816	42.500	17.169
112.500	35.221	104.396	29.025	38.963	1.000	14.103	338.624	42.500	17.595
112.600	35.221	124.673	29.025	38.959	1.000	15.501	338.544	42.500	17.205
112.700	35.221	145.938	29.024	38.953	1.000	15.435	338.542	42.500	17.200
112.800	35.221	132.191	29.024	38.950	1.000	15.300	338.542	42.500	17.200
112.900	35.221	125.761	29.024	38.949	1.000	15.290	338.529	42.500	17.200
113.000	35.221	146.504	29.024	38.949	1.000	15.198	338.528	42.500	17.200
113.100	35.221	107.043	29.024	38.949	1.000	15.260	338.525	42.500	17.598
113.200	35.221	148.092	29.024	38.949	1.000	15.366	338.511	42.500	17.202
113.300	35.221	124.163	29.024	38.948	1.000	15.215	338.516	42.500	17.200
113.400	35.221	122.243	29.023	38.946	1.000	15.221	338.515	42.500	17.200
113.500	35.221	140.456	29.023	38.946	1.000	15.063	338.522	42.500	17.200
113.600	35.221	110.660	29.023	38.946	1.000	14.646	338.545	42.500	16.803
113.700	35.220	128.425	29.023	38.944	1.000	14.386	338.555	42.500	16.800
113.800	35.221	101.114	29.023	38.946	1.000	14.170	338.566	42.500	16.800
113.900	35.221	119.504	29.023	38.945	1.000	13.949	338.581	42.500	16.404
114.000	35.221	111.002	29.022	38.945	1.000	13.996	338.577	42.500	16.400
114.100	35.221	92.814	29.020	38.949	1.000	14.062	338.567	42.500	16.796
114.200	35.221	124.119	29.020	38.953	1.000	14.155	338.556	42.500	16.800
114.300	35.221	99.725	29.020	38.955	1.000	14.334	338.546	42.500	16.800
114.400	35.221	124.515	29.020	38.955	1.000	14.396	338.542	42.500	16.800
114.500	35.220	116.333	29.020	38.957	1.000	14.234	338.544	42.500	16.800
114.600	35.221	105.188	29.020	38.956	1.000	14.197	338.544	42.500	16.800
114.700	35.220	128.233	29.020	38.956	1.000	14.059	338.551	42.500	16.800
114.800	35.221	84.613	29.018	38.962	1.000	13.963	338.549	42.500	16.800
114.900	35.221	120.201	29.018	38.970	1.000	14.235	338.530	42.500	16.800
115.000	35.221	110.001	29.018	38.975	1.000	14.142	338.537	42.500	16.800
115.100	35.221	99.622	29.018	38.976	1.000	14.172	338.530	42.500	16.800
115.200	35.221	120.881	29.018	38.976	1.000	14.380	338.518	42.500	16.800
115.300	35.220	104.778	29.018	38.977	1.000	14.275	338.534	42.500	16.800
115.400	35.221	126.522	29.017	38.976	1.000	14.276	338.529	42.500	16.800
115.500	35.220	101.635	29.016	38.983	1.000	14.234	338.524	42.500	16.800
115.600	35.221	113.834	29.016	38.997	1.000	14.200	338.525	42.500	16.800
115.700	35.221	124.708	29.016	39.004	1.000	14.201	338.524	42.500	16.800
115.800	35.221	95.545	29.016	39.006	1.000	14.100	338.525	42.500	16.800
115.900	35.221	120.700	29.016	39.008	1.000	14.245	338.511	42.500	16.800
116.000	35.221	100.132	29.016	39.008	1.000	14.251	338.510	42.500	16.800
116.100	35.221	119.826	29.016	39.008	1.000	14.320	338.515	42.500	16.800
116.200	35.221	113.569	29.015	39.012	1.000	14.327	338.516	42.500	16.800
116.300	35.221	101.838	29.014	39.030	1.000	14.312	338.515	42.500	16.800
116.400	35.221	130.304	29.013	39.043	1.000	14.365	338.507	42.500	16.800
116.500	35.221	105.961	29.013	39.050	1.000	14.359	338.507	42.500	16.800
116.600	35.221	120.761	29.013	39.051	1.000	14.369	338.507	42.500	16.800
116.700	35.221	112.221	29.013	39.051	1.000	14.367	338.505	42.500	16.800
116.800	35.221	114.528	29.013	39.051	1.000	14.353	338.500	42.500	16.800
116.900	35.221	125.644	29.012	39.053	1.000	14.312	338.500	42.500	16.800
117.000	35.221	93.301	29.011	39.073	1.000	14.186	338.505	42.500	16.800
117.100	35.221	121.396	29.011	39.092	1.000	14.145	338.505	42.500	16.800
117.200	35.221	106.583	29.011	39.101	1.000	14.236	338.507	42.500	16.800
117.300	35.221	113.739	29.011	39.103	1.000	14.337	338.503	42.500	16.800
117.400	35.209	121.283	29.011	39.103	1.000	14.405	338.498	42.500	16.800
117.500	35.218	103.578	29.011	39.104	1.000	14.449	338.490	42.500	16.800
117.600	35.200	127.005	29.011	39.105	1.000	14.448	338.484	42.500	16.800
117.700	35.216	102.977	29.010	39.120	1.000	14.517	338.480	42.500	16.800
117.800	35.221	121.827	29.009	39.145	1.000	14.352	338.483	42.500	16.800
117.900	35.208	116.442	29.009	39.158	1.000	14.296	338.483	42.500	16.800
118.000	35.218	106.880	29.009	39.163	1.000	14.370	338.484	42.500	16.800
118.100	35.201	121.586	29.009	39.166	1.000	14.322	338.488	42.500	16.800
118.200	35.216	104.537	29.009	39.166	1.000	14.597	338.473	42.500	17.196
118.300	35.221	131.331	29.009	39.166	1.000	14.755	338.464	42.500	17.200
118.400	35.221	124.675	29.008	39.180	1.000	14.841	338.461	42.500	17.200
118.500	35.221	117.156	29.008	39.208	1.000	14.817	338.457	42.500	17.200
118.600	35.221	125.561	29.008	39.228	1.000	14.692	338.461	42.500	16.805
118.700	35.221	104.628	29.008	39.234	1.000	14.541	338.467	42.500	16.800
118.800	35.221	123.619	29.008	39.234	1.000	14.681	338.459	42.500	16.800
118.900	35.221	116.673	29.008	39.236	1.000	14.707	338.456	42.500	16.800
119.000	35.221	121.188	29.008	39.236	1.000	14.584	338.462	42.500	16.800
119.100	35.220	123.961	29.007	39.242	1.000	14.461	338.478	42.500	16.800
119.200	35.221	100.631	29.006	39.272	1.000	14.371	338.486	42.500	16.800
119.300	35.202	126.009	29.006	39.298	1.000	14.362	338.476	42.500	16.800
119.400	35.215	108.632	29.006	39.309	1.000	14.408	338.470	42.500	16.800
119.500	35.220	117.497	29.006	39.312	1.000	14.503	338.468	42.500	16.800
119.600	35.210	119.979	29.006	39.315	1.000	14.502	338.468	42.500	16.800
119.700	35.217	108.671	29.006	39.315	1.000	14.502	338.466	42.500	16.800
119.800	35.203	127.662	29.006	39.319	1.000	14.515	338.464	42.500	16.800
119.900	35.215	108.066	29.005	39.350	1.000	14.498	338.461	42.500	16.800
120.000	35.221	123.670	29.004	39.380	1.000	14.504	338.462	42.500	16.800
120.100	35.221	121.387	29.004	39.394	1.000	14.529	338.468	42.500	16.800
120.200	35.221	111.057	29.004	39.400	1.000	14.481	338.463	42.500	16.800
120.300	35.221	124.340	29.004	39.402	1.000	14.496	338.463	42.500	16.800
120.400	35.221	105.461	29.004	39.402	1.000	14.543	338.465	42.500	16.800
120.500	35.221	124.542	29.004	39.403	1.000	14.614	338.453	42.500	16.800
120.600	35.221	114.444	29.003	39.424	1.000	14.572	338.454	42.500	16.800
120.700	35.221	113.923	29.003	39.461	1.000	14.476	338.458	42.500	16.800
120.800	35.221	123.471	29.003	39.484	1.000	14.545	338.450	42.500	16.800
120.900	35.221	104.319	29.003	39.492	1.000	14.596	338.444	42.500	16.800
121.000	35.221	125.328	29.003	39.494	1.000	14.574	338.446	42.500	16.800
121.100	35.220	116.008	29.003	39.496	1.000	14.647	338.444	42.500	16.800
121.200	35.221	124.495	29.003	39.497	1.000	14.606	338.451	42.500	16.800
121.300	35.210	124.791	29.002	39.515	1.000	14.577	338.449	42.500	16.800
121.400	35.217	106.253	29.002	39.555	1.000	14.350	338.462	42.500	16.800
121.500	35.202	119.286	29.002	39.581	1.000	14.267	338.467	42.500	16.800
121.600	35.213	109.002	29.002	39.592	1.000	14.519	338.453	42.500	16.800
121.700	35.220	121.839	29.002	39.596	1.000	14.392	338.464	42.500	16.800
121.800	35.210	118.405	29.002	39.597	1.000	14.446	338.458	42.500	16.800
121.900	35.216	107.778	29.001	39.597	1.000	14.505	338.445	42.500	16.800
122.000	35.221	124.610	29.001	39.603	1.000	14.555	338.445	42.500	16.800
122.100	35.221	114.160	29.000	39.642	1.000	14.354	338.457	42.500	16.800
122.200	35.221	122.463	29.000	39.678	1.000	14.275	338.467	42.500	16.800
122.300	35.221	112.842	29.000	39.695	1.000	14.417	338.462	42.500	16.800
122.400	35.221	112.992	29.000	39.701	1.000	14.266	338.459	42.500	16.800
122.500	35.221	121.653	29.000	39.703	1.000	14.253	338.458	42.500	16.800
122.600	35.220	100.139	29.000	39.704	1.000	14.395	338.456	42.500	16.800
122.700	35.205	117.337	28.999	39.709	1.000	14.480	338.450	42.500	16.800
122.800	35.213	113.099	28.999	39.745	1.000	14.354	338.459	42.500	16.800
122.900	35.221	111.254	28.999	39.787	1.000	14.306	338.456	42.500	16.800
123.000	35.210	117.347	28.999	39.807	1.000	14.332	338.453	42.500	16.800
123.100	35.216	98.819	28.998	39.813	1.000	14.230	338.461	42.500	16.800
123.200	35.204	120.204	28.999	39.816	1.000	14.373	338.456	42.500	16.800
123.300	35.212	113.672	28.999	39.817	1.000	14.384	338.460	42.500	16.800
123.400	35.221	119.805	28.998	39.818	1.000	14.422	338.456	42.500	16.800
123.500	35.211	122.651	28.998	39.840	1.000	14.484	338.447	42.500	16.800
123.600	35.216	106.456	28.998	39.885	1.000	14.568	338.442	42.500	16.800
123.700	35.205	123.648	28.998	39.916	1.000	14.476	338.448	42.500	16.800
123.800	35.212	114.019	28.998	39.927	1.000	14.277	338.456	42.500	16.800
123.900	35.198	119.387	28.998	39.931	1.000	14.393	338.443	42.500	16.800
124.000	35.199	118.113	28.998	39.933	1.000	14.447	338.443	42.500	16.800
124.100	35.216	112.786	28.998	39.934	1.000	14.432	338.450	42.500	16.800
124.200	35.189	123.532	28.997	39.954	1.000	14.331	338.460	42.500	16.800
124.300	35.187	102.237	28.997	40.002	1.000	14.334	338.455	42.500	16.800
124.400	35.191	113.657	28.996	40.036	1.000	14.449	338.441	42.500	16.800
124.500	35.193	114.551	28.996	40.050	1.000	14.438	338.442	42.500	16.800
124.600	35.196	113.482	28.996	40.055	1.000	14.421	338.451	42.500	16.800
124.700	35.180	118.502	28.996	40.057	1.000	14.502	338.441	42.500	16.800
124.800	35.202	109.079	28.996	40.057	1.000	14.538	338.435	42.500	16.800
124.900	35.200	125.676	28.996	40.065	1.000	14.444	338.437	42.500	16.800
125.000	35.177	114.175	28.996	40.108	1.000	14.443	338.435	42.500	16.800
125.100	35.202	116.567	28.996	40.154	1.000	14.462	338.445	42.500	16.800
125.200	35.205	121.925	28.996	40.174	1.000	14.433	338.446	42.500	16.800
125.300	35.195	108.214	28.996	40.181	1.000	14.435	338.441	42.500	16.800
125.400	35.179	118.901	28.996	40.183	1.000	14.475	338.439	42.500	16.800
125.500	35.170	112.537	28.996	40.184	1.000	14.595	338.431	42.500	16.800
125.600	35.179	123.435	28.995	40.190	1.000	14.360	338.445	42.500	16.800
125.700	35.191	120.016	28.995	40.230	1.000	14.370	338.441	42.500	16.800
125.800	35.195	108.999	28.994	40.278	1.000	14.406	338.439	42.500	16.800
125.900	35.180	120.556	28.995	40.303	1.000	14.357	338.440	42.500	16.800
126.000	35.170	104.953	28.995	40.312	1.000	14.466	338.431	42.500	16.800
126.100	35.180	114.473	28.995	40.316	1.000	14.570	338.427	42.500	16.800
126.200	35.192	119.259	28.994	40.317	1.000	14.555	338.430	42.500	16.800
126.300	35.196	114.387	28.994	40.318	1.000	14.303	338.442	42.500	16.800
126.400	35.181	121.715	28.994	40.342	1.000	14.438	338.433	42.500	16.800
126.500	35.170	108.756	28.994	40.395	1.000	14.549	338.431	42.500	17.194
126.600	35.179	118.773	28.994	40.434	1.000	14.661	338.430	42.500	17.200
126.700	35.198	118.093	28.994	40.448	1.000	15.305	338.384	42.500	17.984
126.800	35.215	137.252	28.994	40.453	1.000	23.058	337.812	42.500	41.694
126.900	35.316	298.131	28.994	40.455	1.000	53.997	335.827	42.500	98.171
127.000	35.583	865.218	28.994	40.457	1.000	109.862	332.506	42.500	100.000
127.100	35.964	1827.706	28.993	40.477	1.000	146.033	330.492	42.500	100.000
127.200	36.386	2457.874	28.993	40.529	1.000	150.388	330.190	42.500	100.000
127.300	36.793	2517.998	28.993	40.572	1.000	148.820	330.135	42.500	100.000
127.400	37.182	2426.483	28.993	40.589	1.000	150.484	329.943	42.500	100.000
127.500	37.578	2413.448	28.993	40.595	1.000	153.327	329.756	42.500	100.000
127.600	37.972	2453.746	28.993	40.596	1.000	154.783	329.648	42.500	100.000
127.700	38.360	2446.285	28.993	40.597	1.000	154.890	329.575	42.500	100.000
127.800	38.751	2424.898	28.993	40.604	1.000	155.100	329.494	42.500	100.000
127.900	39.143	2398.700	28.992	40.649	1.000	155.176	329.423	42.004	100.000
128.000	39.531	2378.414	28.992	40.704	1.000	155.145	329.366	42.000	100.000
128.100	39.901	2350.569	28.992	40.731	1.000	155.068	329.324	42.000	100.000
128.200	40.273	2322.772	28.992	40.740	1.000	155.067	329.269	42.000	100.000
128.300	40.639	2299.721	28.992	40.743	1.000	155.106	329.210	42.000	100.000
128.400	40.998	2279.883	28.992	40.745	1.000	155.028	329.154	42.000	100.000
128.500	41.350	2261.511	28.992	40.750	1.000	154.948	329.101	42.000	100.000
128.600	41.701	2236.435	28.992	40.792	1.000	154.687	329.066	42.000	100.000
128.700	42.051	2212.411	28.992	40.850	1.000	154.356	329.039	42.000	100.000
128.800	42.392	2187.845	28.992	40.881	1.000	154.056	329.001	42.000	100.000
128.900	42.736	2169.746	28.992	40.894	1.000	153.864	328.956	42.000	100.000
129.000	43.077	2148.305	28.992	40.897	1.000	153.846	328.916	42.000	100.000
129.100	43.407	2124.948	28.992	40.899	1.000	154.012	328.866	42.000	100.000
129.200	43.737	2108.910	28.992	40.900	1.000	154.239	328.808	42.000	100.000
129.300	44.062	2097.007	28.991	40.924	1.000	154.401	328.747	42.000	100.000
129.400	44.389	2082.406	28.991	40.981	1.000	154.514	328.696	42.000	100.000
129.500	44.702	2068.324	28.991	41.027	1.000	154.641	328.645	42.000	100.000
129.600	45.002	2057.823	28.991	41.045	1.000	154.748	328.589	42.000	100.000
129.700	45.316	2040.385	28.991	41.051	1.000	154.783	328.543	42.000	100.000
129.800	45.625	2024.187	28.991	41.053	1.000	154.750	328.506	42.000	100.000
129.900	45.946	2008.362	28.991	41.055	1.000	154.719	328.454	42.000	100.000
130.000	46.263	1994.996	28.991	41.075	1.000	154.753	328.412	42.000	100.000
130.100	46.554	1978.010	28.990	41.129	1.000	154.759	328.376	42.000	100.000
130.200	46.842	1964.067	28.990	41.178	1.000	154.629	328.338	42.000	100.000
130.300	47.130	1951.487	28.990	41.197	1.000	154.464	328.307	42.000	100.000
130.400	47.425	1937.236	28.990	41.204	1.000	154.580	328.260	42.000	100.000
130.500	47.722	1926.568	28.990	41.206	1.000	154.837	328.204	42.000	100.000
130.600	48.013	1911.673	28.990	41.207	1.000	154.785	328.163	42.000	100.000
130.700	48.306	1900.503	28.990	41.213	1.000	154.667	328.132	42.000	100.000
130.800	48.601	1879.260	28.990	41.258	1.000	154.507	328.103	42.000	100.000
130.900	48.896	1869.736	28.990	41.318	1.000	154.311	328.074	42.000	100.000
131.000	49.187	1854.832	28.990	41.347	1.000	154.120	328.043	42.000	100.000
131.100	49.453	1841.854	28.990	41.358	1.000	154.045	328.012	42.000	100.000
131.200	49.718	1830.838	28.990	41.362	1.000	154.141	327.974	42.000	100.000
131.300	49.991	1818.179	28.990	41.363	1.000	154.282	327.930	42.000	100.000
131.400	50.247	1812.240	28.990	41.367	1.000	154.406	327.881	42.000	100.000
131.500	50.515	1798.023	28.990	41.405	1.000	154.527	327.835	42.000	100.000
131.600	50.802	1790.774	28.990	41.465	1.000	154.672	327.792	42.000	100.000
131.700	51.070	1782.743	28.990	41.498	1.000	154.747	327.754	42.000	100.000
131.800	51.312	1772.941	28.990	41.509	1.000	154.809	327.717	42.000	100.000
131.900	51.562	1767.796	28.990	41.513	1.000	154.809	327.678	42.000	100.000
132.000	51.831	1753.316	28.990	41.515	1.000	155.034	327.628	42.000	100.000
132.100	52.097	1745.707	28.990	41.516	1.000	155.282	327.581	42.000	100.000
132.200	52.348	1740.590	28.990	41.537	1.000	155.230	327.548	42.000	100.000
132.300	52.599	1729.329	28.990	41.591	1.000	155.172	327.515	42.000	100.000
132.400	52.840	1719.575	28.990	41.638	1.000	155.161	327.476	42.000	100.000
132.500	53.098	1706.391	28.990	41.656	1.000	155.105	327.448	42.000	100.000
132.600	53.360	1701.799	28.990	41.662	1.000	154.935	327.426	42.000	100.000
132.700	53.590	1692.488	28.990	41.664	1.000	154.790	327.390	42.000	100.000
132.800	53.830	1675.370	28.990	41.665	1.000	154.724	327.363	41.506	100.000
132.900	54.077	1672.141	28.990	41.681	1.000	154.609	327.337	41.500	100.000
133.000	54.300	1662.088	28.990	41.731	1.000	154.564	327.298	41.500	100.000
133.100	54.545	1648.705	28.990	41.780	1.000	154.600	327.274	41.500	100.000
133.200	54.790	1646.231	28.990	41.798	1.000	154.529	327.243	41.500	100.000
133.300	55.028	1636.062	28.990	41.806	1.000	154.424	327.213	41.500	100.000
133.400	55.263	1623.862	28.990	41.808	1.000	154.354	327.183	41.500	100.000
133.500	55.491	1622.948	28.990	41.808	1.000	154.169	327.162	41.500	100.000
133.600	55.712	1605.708	28.990	41.814	1.000	154.008	327.145	41.500	100.000
133.700	55.935	1589.588	28.991	41.849	1.000	154.070	327.112	41.500	100.000
133.800	56.150	1598.302	28.990	41.907	1.000	154.278	327.067	41.500	100.000
133.900	56.385	1600.625	28.990	41.936	1.000	154.431	327.022	41.500	100.000
134.000	56.603	1593.174	28.991	41.947	1.000	154.613	326.975	41.500	100.000
134.100	56.813	1576.047	28.991	41.950	1.000	154.580	326.950	41.500	100.000
134.200	57.035	1552.021	28.991	41.951	1.000	154.469	326.927	41.500	100.000
134.300	57.252	1542.548	28.991	41.955	1.000	154.549	326.897	41.500	100.000
134.400	57.453	1535.801	28.991	41.986	1.000	154.498	326.869	41.500	100.000
134.500	57.670	1526.038	28.991	42.040	1.000	154.495	326.832	41.500	100.000
134.600	57.899	1525.340	28.991	42.072	1.000	154.426	326.810	41.500	100.000
134.700	58.107	1531.095	28.991	42.083	1.000	154.167	326.792	41.500	100.000
134.800	58.304	1534.149	28.991	42.086	1.000	154.190	326.754	41.500	100.000
134.900	58.520	1533.964	28.991	42.087	1.000	154.185	326.724	41.500	100.000
135.000	58.720	1519.635	28.991	42.088	1.000	154.076	326.701	41.500	100.000
135.100	58.935	1497.171	28.991	42.104	1.000	154.195	326.665	41.500	100.000
135.200	59.150	1494.658	28.991	42.149	1.000	154.155	326.633	41.500	100.000
135.300	59.345	1502.185	28.991	42.191	1.000	154.374	326.589	41.500	100.000
135.400	59.539	1487.628	28.991	42.207	1.000	154.560	326.556	41.500	100.000
135.500	59.735	1479.010	28.991	42.213	1.000	154.570	326.523	41.500	100.000
135.600	59.944	1484.345	28.991	42.215	1.000	154.616	326.483	41.500	100.000
135.700	60.159	1471.649	28.991	42.216	1.000	154.703	326.450	41.500	100.000
135.800	60.370	1462.688	28.991	42.231	1.000	154.725	326.415	41.500	100.000
135.900	60.584	1460.797	28.991	42.275	1.000	155.013	326.372	41.500	100.000
136.000	60.769	1458.476	28.991	42.314	1.000	155.408	326.328	41.500	100.000
136.100	60.986	1461.303	28.991	42.328	1.000	155.278	326.310	41.500	100.000
136.200	61.171	1457.889	28.991	42.333	1.000	155.254	326.285	41.500	100.000
136.300	61.367	1447.407	28.991	42.334	1.000	155.365	326.247	41.500	100.000
136.400	61.565	1439.339	28.991	42.335	1.000	155.232	326.224	41.500	100.000
136.500	61.761	1432.792	28.991	42.343	1.000	155.174	326.196	41.500	100.000
136.600	61.962	1427.479	28.991	42.386	1.000	155.271	326.165	41.500	100.000
136.700	62.167	1425.443	28.991	42.422	1.000	155.434	326.138	41.500	100.000
136.800	62.370	1423.087	28.991	42.437	1.000	155.483	326.103	41.500	100.000
136.900	62.533	1422.820	28.991	42.441	1.000	155.416	326.074	41.500	100.000
137.000	62.736	1412.259	28.991	42.442	1.000	155.308	326.049	41.500	100.000
137.100	62.944	1396.349	28.991	42.442	1.000	155.332	326.020	41.500	100.000
137.200	63.145	1397.097	28.991	42.452	1.000	155.424	325.991	41.500	100.000
137.300	63.342	1393.427	28.992	42.497	1.000	155.588	325.951	41.500	100.000
137.400	63.514	1389.448	28.992	42.525	1.000	155.650	325.921	41.500	100.000
137.500	63.703	1382.899	28.992	42.535	1.000	155.514	325.902	41.500	100.000
137.600	63.892	1378.977	28.992	42.538	1.000	155.445	325.872	41.003	100.000
137.700	64.047	1375.059	28.992	42.539	1.000	155.501	325.837	41.000	100.000
137.800	64.238	1374.610	28.992	42.540	1.000	155.451	325.821	41.000	100.000
137.900	64.401	1366.172	28.992	42.544	1.000	155.432	325.799	41.000	100.000
138.000	64.582	1362.790	28.993	42.570	1.000	155.437	325.772	41.000	100.000
138.100	64.757	1360.081	28.993	42.602	1.000	155.345	325.752	41.000	100.000
138.200	64.920	1352.431	28.993	42.614	1.000	155.292	325.731	41.000	100.000
138.300	65.085	1347.780	28.993	42.617	1.000	155.404	325.695	41.000	100.000
138.400	65.259	1346.658	28.993	42.620	1.000	155.639	325.651	41.000	100.000
138.500	65.425	1343.511	28.993	42.621	1.000	155.784	325.616	41.000	100.000
138.600	65.601	1337.041	28.993	42.623	1.000	155.712	325.593	41.000	100.000
138.700	65.762	1335.841	28.993	42.640	1.000	155.648	325.578	41.000	100.000
138.800	65.936	1328.858	28.992	42.665	1.000	155.532	325.556	41.000	100.000
138.900	66.094	1323.789	28.992	42.676	1.000	155.466	325.523	41.000	100.000
139.000	66.280	1317.858	28.992	42.681	1.000	155.604	325.488	41.000	100.000
139.100	66.424	1317.656	28.992	42.682	1.000	155.790	325.455	41.000	100.000
139.200	66.576	1315.367	28.992	42.682	1.000	155.847	325.426	41.000	100.000
139.300	66.766	1315.311	28.992	42.682	1.000	155.777	325.405	41.000	100.000
139.400	66.914	1311.307	28.992	42.689	1.000	155.835	325.374	41.000	100.000
139.500	67.059	1305.030	28.992	42.709	1.000	155.856	325.339	41.000	100.000
139.600	67.226	1301.764	28.992	42.719	1.000	156.214	325.290	41.000	100.000
139.700	67.403	1299.892	28.992	42.723	1.000	155.883	325.284	41.000	100.000
139.800	67.547	1290.585	28.992	42.725	1.000	155.916	325.266	41.000	100.000
139.900	67.696	1295.055	28.992	42.725	1.000	156.248	325.227	41.000	100.000
140.000	67.855	1286.169	28.992	42.725	1.000	155.917	325.219	41.000	100.000
140.100	68.005	1281.182	28.992	42.729	1.000	155.833	325.199	41.000	100.000
140.200	68.179	1283.364	28.992	42.738	1.000	155.892	325.174	41.000	100.000
140.300	68.324	1275.272	28.992	42.743	1.000	156.099	325.139	41.000	100.000
140.400	68.471	1271.023	28.992	42.746	1.000	156.096	325.106	41.000	100.000
140.500	68.629	1268.348	28.992	42.746	1.000	156.068	325.081	41.000	100.000
140.600	68.760	1264.969	28.992	42.746	1.000	156.054	325.062	41.000	100.000
140.700	68.908	1258.320	28.992	42.746	1.000	156.062	325.036	41.000	100.000
140.800	69.050	1257.350	28.992	42.747	1.000	156.175	325.005	41.000	100.000
140.900	69.199	1254.406	28.993	42.748	1.000	156.229	324.974	41.000	100.000
141.000	69.361	1253.269	28.993	42.747	1.000	156.274	324.943	41.000	100.000
141.100	69.503	1252.162	28.993	42.748	1.000	156.592	324.908	41.000	100.000
141.200	69.636	1249.721	28.993	42.748	1.000	156.924	324.864	41.000	100.000
141.300	69.779	1252.269	28.993	42.749	1.000	156.808	324.839	41.000	100.000
141.400	69.930	1250.355	28.993	42.747	1.000	156.699	324.823	41.000	100.000
141.500	70.091	1241.259	28.993	42.748	1.000	156.873	324.788	41.000	100.000
141.600	70.236	1241.373	28.993	42.743	1.000	156.955	324.761	41.000	100.000
141.700	70.368	1240.045	28.993	42.735	1.000	156.965	324.740	41.000	100.000
141.800	70.515	1235.785	28.993	42.733	1.000	156.915	324.710	41.000	100.000
141.900	70.662	1235.252	28.993	42.730	1.000	156.877	324.677	41.000	100.000
142.000	70.806	1229.952	28.993	42.730	1.000	157.001	324.650	41.000	100.000
142.100	70.921	1223.439	28.994	42.729	1.000	156.918	324.643	41.000	100.000
142.200	71.065	1216.517	28.993	42.731	1.000	156.791	324.625	41.000	100.000
142.300	71.211	1216.665	28.994	42.724	1.000	157.018	324.583	41.000	100.000
142.400	71.340	1219.243	28.994	42.706	1.000	157.246	324.546	41.000	94.458
142.500	71.455	1211.574	28.994	42.696	1.000	153.582	324.689	41.000	79.370
142.600	71.595	1162.355	28.994	42.692	1.000	137.607	325.509	40.506	64.966
142.700	71.633	977.535	28.994	42.691	1.000	109.224	327.118	40.500	50.967
142.800	71.621	695.116	28.994	42.689	1.000	72.700	329.255	40.500	37.970
142.900	71.572	351.319	28.994	42.690	1.000	31.843	331.696	40.500	17.868
143.000	71.475	-15.186	28.994	42.684	1.000	6.702	333.335	40.500	0.536
143.100	71.361	-191.686	28.994	42.655	1.000	4.814	333.607	40.500	0.000
143.200	71.277	-151.051	28.994	42.634	1.000	-0.309	333.977	40.500	0.000
143.300	71.130	-190.197	28.994	42.628	1.000	-11.671	334.731	40.500	1.592
143.400	70.954	-412.892	28.993	42.625	1.000	-22.210	335.440	40.500	6.727
143.500	70.839	-469.214	28.993	42.623	1.000	-23.688	335.580	40.500	11.967
143.600	70.695	-417.673	28.993	42.623	1.000	-13.739	335.072	40.500	15.179
143.700	70.596	-283.537	28.994	42.622	1.000	-9.291	334.892	40.500	15.200
143.800	70.469	-282.460	28.993	42.602	1.000	-9.324	334.950	40.500	15.200
143.900	70.352	-295.437	28.994	42.563	1.000	-9.533	335.008	40.500	15.597
144.000	70.224	-290.260	28.993	42.548	1.000	-9.057	335.023	40.500	15.990
144.100	70.111	-283.934	28.993	42.540	1.000	-7.553	334.970	40.500	17.585
144.200	70.013	-258.935	28.993	42.539	1.000	-4.736	334.836	40.500	19.977
144.300	69.915	-219.351	28.993	42.539	1.000	-1.399	334.668	40.500	22.376
144.400	69.817	-183.256	28.994	42.538	1.000	-1.272	334.688	40.500	24.379
144.500	69.688	-217.095	28.994	42.515	1.000	2.462	334.494	40.500	25.587
144.600	69.653	-127.879	28.994	42.464	1.000	12.168	333.962	40.500	27.576
144.700	69.606	11.986	28.994	42.443	1.000	18.214	333.639	40.500	31.157
144.800	69.509	14.143	28.995	42.435	1.000	21.936	333.429	40.500	32.385
144.900	69.476	55.623	28.995	42.433	1.000	25.544	333.226	40.500	33.190
145.000	69.429	93.505	28.995	42.432	1.000	30.226	332.945	40.500	36.333
145.100	69.412	144.233	28.995	42.432	1.000	37.446	332.531	40.500	39.125
145.200	69.364	222.053	28.995	42.424	1.000	42.951	332.224	40.500	40.394
145.300	69.362	257.152	28.996	42.365	1.000	46.222	332.033	40.500	42.376
145.400	69.363	286.269	28.995	42.324	1.000	50.219	331.804	40.500	43.991
145.500	69.337	331.295	28.995	42.310	1.000	54.943	331.521	40.500	46.381
145.600	69.361	375.710	28.996	42.304	1.000	60.662	331.187	40.500	47.592
145.700	69.361	434.250	28.996	42.304	1.000	63.773	331.003	40.500	47.998
145.800	69.363	446.756	28.996	42.302	1.000	65.643	330.861	40.500	49.984
145.900	69.395	466.438	28.996	42.297	1.000	69.961	330.591	40.500	51.974
146.000	69.412	510.427	28.996	42.236	1.000	73.305	330.401	40.500	52.394
146.100	69.434	530.032	28.996	42.183	1.000	74.271	330.347	40.500	52.400
146.200	69.491	528.943	28.996	42.164	1.000	74.863	330.295	40.500	52.400
146.300	69.507	541.914	28.996	42.157	1.000	75.307	330.257	40.500	52.400
146.400	69.511	542.519	28.996	42.155	1.000	75.326	330.251	40.500	52.400
146.500	69.554	540.255	28.996	42.154	1.000	75.355	330.240	40.500	52.400
146.600	69.580	537.576	28.996	42.153	1.000	75.068	330.239	40.500	51.609
146.700	69.604	531.811	28.997	42.112	1.000	73.703	330.308	40.500	51.205
146.800	69.631	518.699	28.998	42.036	1.000	72.707	330.360	40.500	51.200
146.900	69.639	513.278	28.997	42.006	1.000	71.218	330.416	40.500	49.226
147.000	69.654	496.648	28.998	41.994	1.000	68.141	330.595	40.500	48.424
147.100	69.655	457.550	28.998	41.989	1.000	66.698	330.702	40.500	48.793
147.200	69.655	460.155	28.998	41.988	1.000	68.108	330.608	40.500	50.791
147.300	69.701	484.766	28.998	41.986	1.000	71.257	330.412	40.500	52.392
147.400	69.736	519.068	28.999	41.951	1.000	74.410	330.232	40.500	53.196
147.500	69.751	544.909	29.000	41.865	1.000	76.476	330.110	40.500	53.598
147.600	69.797	560.130	29.000	41.824	1.000	77.408	330.046	40.500	53.600
147.700	69.802	558.215	29.000	41.808	1.000	77.504	330.026	40.500	53.203
147.800	69.846	557.583	29.000	41.804	1.000	77.430	330.016	40.500	53.200
147.900	69.872	560.534	29.000	41.801	1.000	77.169	330.026	40.500	53.200
148.000	69.883	556.580	29.000	41.800	1.000	76.920	330.034	40.500	52.811
148.100	69.927	550.196	29.001	41.789	1.000	75.204	330.125	40.500	51.215
148.200	69.945	523.282	29.003	41.707	1.000	72.104	330.305	40.500	50.011
148.300	69.947	496.793	29.003	41.641	1.000	70.462	330.402	40.500	50.000
148.400	69.970	487.002	29.003	41.617	1.000	68.716	330.493	40.500	48.417
148.500	69.972	473.101	29.003	41.607	1.000	65.053	330.703	40.500	46.845
148.600	69.979	435.292	29.003	41.604	1.000	62.371	330.874	40.500	46.800
148.700	69.996	411.966	29.003	41.603	1.000	61.896	330.913	40.500	46.800
148.800	69.997	412.440	29.004	41.594	1.000	61.915	330.913	40.500	46.800
148.900	69.998	415.769	29.004	41.510	1.000	61.957	330.911	40.500	46.800
149.000	69.997	416.799	29.005	41.436	1.000	62.005	330.906	40.500	46.800
149.100	69.997	413.734	29.004	41.405	1.000	62.074	330.903	40.500	46.800
149.200	69.998	416.189	29.005	41.394	1.000	62.105	330.909	40.500	46.800
149.300	69.996	411.140	29.004	41.391	1.000	62.170	330.904	40.500	47.198
149.400	69.998	413.878	29.005	41.389	1.000	62.128	330.907	40.500	46.809
149.500	70.018	413.310	29.005	41.387	1.000	61.902	330.926	40.500	46.800
149.600	69.999	414.117	29.007	41.339	1.000	61.817	330.936	40.500	46.800
149.700	69.996	414.249	29.008	41.242	1.000	61.795	330.938	40.500	46.800
149.800	70.009	412.046	29.008	41.195	1.000	61.677	330.937	40.500	46.800
149.900	69.998	409.175	29.008	41.178	1.000	61.617	330.934	40.500	46.800
150.000	70.039	406.364	29.008	41.172	1.000	61.691	330.933	40.500	46.800
150.100	70.045	415.341	29.008	41.170	1.000	61.729	330.934	40.500	46.800
150.200	70.033	411.197	29.008	41.167	1.000	61.737	330.938	40.500	46.800
150.300	70.044	408.320	29.009	41.129	1.000	61.920	330.922	40.500	46.800
150.400	70.025	415.561	29.010	41.028	1.000	61.959	330.916	40.500	46.800
150.500	70.041	412.466	29.010	40.971	1.000	61.983	330.919	40.500	46.800
150.600	70.045	417.747	29.010	40.950	1.000	62.054	330.913	40.500	46.800
150.700	70.044	417.101	29.010	40.943	1.000	61.889	330.921	40.500	46.800
150.800	70.045	413.206	29.010	40.940	1.000	61.774	330.926	40.500	46.800
150.900	70.060	411.816	29.010	40.938	1.000	61.676	330.932	40.500	46.800
151.000	70.048	409.449	29.011	40.928	1.000	61.583	330.936	40.500	46.412
151.100	70.066	410.487	29.013	40.834	1.000	61.539	330.942	40.500	46.794
151.200	70.071	411.439	29.013	40.756	1.000	61.291	330.957	40.500	46.402
151.300	70.050	409.293	29.013	40.721	1.000	60.758	330.987	40.500	46.002
151.400	70.066	399.889	29.013	40.708	1.000	59.998	331.028	40.500	46.000
151.500	70.063	388.987	29.013	40.705	1.000	59.464	331.060	40.500	46.000
151.600	70.048	387.702	29.013	40.704	1.000	59.367	331.072	40.500	46.000
151.700	70.065	388.645	29.014	40.695	1.000	59.424	331.070	40.500	46.000
151.800	70.050	389.450	29.015	40.609	1.000	59.387	331.066	40.500	46.000
151.900	70.046	389.744	29.016	40.523	1.000	59.244	331.075	40.500	46.000
152.000	70.058	385.407	29.016	40.484	1.000	59.267	331.075	40.500	46.000
152.100	70.049	382.353	29.016	40.470	1.000	59.251	331.073	40.500	45.604
152.200	70.045	385.925	29.016	40.467	1.000	59.048	331.091	40.500	45.996
152.300	70.044	386.221	29.016	40.465	1.000	58.999	331.092	40.500	46.000
152.400	70.046	384.803	29.016	40.464	1.000	58.966	331.093	40.500	45.604
152.500	70.045	386.760	29.018	40.413	1.000	58.895	331.096	40.500	45.996
152.600	70.045	384.811	29.020	40.315	1.000	59.034	331.088	40.500	46.000
152.700	70.046	388.516	29.020	40.257	1.000	59.061	331.089	40.500	45.605
152.800	70.046	386.595	29.020	40.237	1.000	58.954	331.094	40.500	45.600
152.900	70.046	386.902	29.020	40.229	1.000	58.733	331.100	40.500	45.205
153.000	70.045	379.542	29.020	40.226	1.000	57.311	331.181	40.500	44.427
153.100	70.027	365.748	29.020	40.225	1.000	55.834	331.279	40.500	44.400
153.200	70.021	358.316	29.020	40.225	1.000	55.714	331.292	40.500	44.798
153.300	70.041	356.236	29.020	40.225	1.000	55.789	331.288	40.500	44.800
153.400	70.007	356.828	29.020	40.226	1.000	55.845	331.286	40.500	44.800
153.500	69.998	356.740	29.020	40.225	1.000	55.895	331.284	40.500	44.800
153.600	69.996	357.861	29.021	40.220	1.000	56.034	331.284	40.500	44.800
153.700	69.996	357.363	29.024	40.144	1.000	56.080	331.284	40.500	44.800
153.800	69.997	357.039	29.025	40.057	1.000	56.160	331.275	40.500	44.800
153.900	69.997	354.851	29.026	40.013	1.000	56.292	331.264	40.500	44.800
154.000	69.977	360.513	29.026	39.998	1.000	56.394	331.266	40.500	44.800
154.100	69.952	362.448	29.025	39.991	1.000	56.488	331.268	40.500	44.800
154.200	69.959	361.097	29.025	39.989	1.000	56.478	331.266	40.500	44.800
154.300	69.950	360.058	29.026	39.987	1.000	56.461	331.266	40.500	44.800
154.400	69.965	361.174	29.028	39.952	1.000	56.591	331.257	40.500	45.196
154.500	69.953	365.170	29.029	39.854	1.000	57.289	331.212	40.500	45.596
154.600	69.947	375.607	29.029	39.787	1.000	58.007	331.169	40.500	45.600
154.700	69.947	379.501	29.029	39.762	1.000	58.091	331.169	40.500	45.600
154.800	69.947	379.136	29.029	39.753	1.000	58.073	331.169	40.500	45.600
154.900	69.947	378.764	29.029	39.750	1.000	58.201	331.161	40.500	45.600
155.000	69.947	380.090	29.029	39.748	1.000	58.287	331.157	40.500	45.600
155.100	69.947	381.302	29.031	39.719	1.000	58.187	331.162	40.500	45.600
155.200	69.947	381.586	29.032	39.625	1.000	58.144	331.161	40.500	45.600
155.300	69.929	379.521	29.033	39.557	1.000	58.103	331.160	40.500	45.202
155.400	69.941	378.766	29.033	39.529	1.000	58.080	331.158	40.500	45.591
155.500	69.947	378.063	29.033	39.519	1.000	57.945	331.167	40.500	45.203
155.600	69.930	378.522	29.033	39.516	1.000	57.691	331.181	40.500	45.200
155.700	69.930	368.157	29.033	39.516	1.000	57.387	331.200	40.500	45.200
155.800	69.920	367.234	29.034	39.509	1.000	56.718	331.233	40.500	44.406
155.900	69.904	363.662	29.036	39.434	1.000	55.503	331.299	40.500	44.003
156.000	69.900	350.950	29.036	39.350	1.000	54.678	331.351	40.500	44.000
156.100	69.900	346.572	29.036	39.309	1.000	54.690	331.366	40.500	44.000
156.200	69.900	350.980	29.036	39.294	1.000	54.953	331.359	40.005	44.000
156.300	69.900	353.791	29.037	39.290	1.000	54.911	331.358	40.000	44.000
156.400	69.876	348.593	29.037	39.287	1.000	54.607	331.374	40.000	44.000
156.500	69.854	344.670	29.037	39.283	1.000	53.243	331.440	40.000	42.419
156.600	69.850	330.902	29.038	39.221	1.000	48.967	331.660	40.000	38.868
156.700	69.815	287.318	29.039	39.137	1.000	37.538	332.280	40.000	29.317
156.800	69.743	163.939	29.039	39.091	1.000	18.212	333.411	40.000	3.580
156.900	69.663	-39.804	29.039	39.075	1.000	6.447	334.171	40.000	0.038
157.000	69.560	-144.510	29.039	39.069	1.000	3.939	334.343	40.000	0.000
157.100	69.459	-144.547	29.039	39.066	1.000	-5.190	334.939	40.000	0.000
157.200	69.327	-263.453	29.039	39.065	1.000	-14.685	335.531	40.000	0.000
157.300	69.158	-393.634	29.040	39.034	1.000	-29.978	336.399	40.000	0.000
157.400	68.947	-665.106	29.041	38.953	1.000	-54.312	337.874	40.000	0.000
157.500	68.686	-1090.067	29.041	38.891	1.000	-76.390	339.245	40.000	0.000
157.600	68.371	-1407.941	29.041	38.867	1.000	-96.552	340.510	40.000	0.000
157.700	68.003	-1621.732	29.041	38.859	1.000	-111.438	341.521	40.000	0.000
157.800	67.607	-1781.714	29.041	38.856	1.000	-116.205	341.952	40.000	0.000
157.900	67.226	-1827.016	29.041	38.855	1.000	-116.248	342.056	40.000	0.000
158.000	66.830	-1834.920	29.042	38.833	1.000	-117.058	342.183	40.495	0.000
158.100	66.465	-1851.173	29.043	38.755	1.000	-117.484	342.291	40.500	0.000
158.200	66.080	-1869.147	29.043	38.693	1.000	-118.663	342.447	40.500	0.000
158.300	65.698	-1892.072	29.043	38.668	1.000	-119.606	342.574	40.500	0.000
158.400	65.314	-1907.429	29.043	38.658	1.000	-118.942	342.606	40.500	0.000
158.500	64.947	-1880.935	29.043	38.654	1.000	-115.800	342.472	40.500	0.000
158.600	64.568	-1775.753	29.043	38.652	1.000	-108.110	342.070	40.500	0.000
158.700	64.240	-1613.066	29.043	38.647	1.000	-99.115	341.622	40.500	0.000
158.800	63.925	-1492.696	29.045	38.592	1.000	-94.621	341.432	40.500	0.000
158.900	63.634	-1461.688	29.045	38.522	1.000	-93.900	341.440	40.500	0.000
159.000	63.328	-1467.355	29.045	38.482	1.000	-93.668	341.477	40.500	0.000
159.100	63.021	-1472.005	29.045	38.468	1.000	-93.579	341.516	40.500	0.000
159.200	62.698	-1479.939	29.045	38.463	1.000	-93.472	341.555	40.500	0.000
159.300	62.382	-1481.670	29.045	38.462	1.000	-93.453	341.600	40.500	0.000
159.400	62.059	-1481.809	29.045	38.458	1.000	-93.385	341.637	40.500	0.000
159.500	61.763	-1487.921	29.046	38.410	1.000	-93.291	341.681	40.500	0.000
159.600	61.467	-1493.182	29.047	38.341	1.000	-93.088	341.719	40.500	0.000
159.700	61.166	-1494.141	29.047	38.300	1.000	-92.647	341.739	40.500	0.000
159.800	60.842	-1495.095	29.047	38.285	1.000	-92.331	341.765	40.500	0.000
159.900	60.534	-1509.382	29.047	38.280	1.000	-93.141	341.850	40.500	0.000
160.000	60.239	-1541.762	29.047	38.279	1.000	-93.961	341.943	40.500	0.000
160.100	59.914	-1561.969	29.047	38.277	1.000	-93.794	341.984	40.500	0.000
160.200	59.584	-1559.860	29.048	38.254	1.000	-93.247	341.992	40.500	0.000
160.300	59.269	-1560.407	29.048	38.188	1.000	-92.828	342.011	40.500	0.000
160.400	58.950	-1556.499	29.048	38.135	1.000	-92.402	342.030	40.500	0.000
160.500	58.639	-1560.202	29.048	38.113	1.000	-91.828	342.035	40.500	0.000
160.600	58.314	-1567.231	29.048	38.105	1.000	-91.360	342.039	40.500	0.000
160.700	58.002	-1549.533	29.048	38.102	1.000	-89.333	341.906	40.500	0.000
160.800	57.759	-1460.709	29.048	38.100	1.000	-65.577	340.499	40.500	0.000
160.900	57.555	-1114.959	29.048	38.085	1.000	-46.484	339.453	40.500	0.000
161.000	57.360	-802.122	29.048	38.028	1.000	-44.150	339.373	40.500	0.000
161.100	57.195	-773.608	29.048	37.974	1.000	-43.989	339.377	40.500	0.000
161.200	57.021	-804.349	29.048	37.950	1.000	-43.760	339.376	40.500	0.000
161.300	56.825	-792.963	29.048	37.941	1.000	-43.686	339.383	40.500	0.000
161.400	56.630	-790.701	29.048	37.938	1.000	-43.558	339.383	40.500	0.000
161.500	56.463	-793.592	29.048	37.937	1.000	-43.308	339.387	40.500	0.000
161.600	56.288	-780.426	29.048	37.933	1.000	-41.330	339.263	40.500	1.592
161.700	56.124	-737.869	29.048	37.891	1.000	-34.286	338.829	40.500	4.384
161.800	56.000	-639.103	29.048	37.833	1.000	-25.590	338.331	40.500	6.785
161.900	55.896	-510.923	29.049	37.800	1.000	-15.651	337.751	40.500	12.362
162.000	55.798	-388.219	29.049	37.788	1.000	-6.685	337.238	40.500	16.310
162.100	55.718	-274.951	29.049	37.784	1.000	-0.091	336.844	40.500	23.541
162.200	55.663	-180.756	29.049	37.782	1.000	8.598	336.314	40.500	27.170
162.300	55.624	-68.401	29.049	37.779	1.000	18.144	335.765	40.500	27.200
162.400	55.600	50.993	29.049	37.746	1.000	22.126	335.535	40.500	27.200
162.500	55.567	119.200	29.049	37.691	1.000	21.723	335.543	40.500	27.200
162.600	55.527	115.697	29.049	37.657	1.000	20.686	335.588	40.500	26.408
162.700	55.502	79.603	29.049	37.643	1.000	19.356	335.643	40.500	25.609
162.800	55.470	66.708	29.049	37.639	1.000	17.765	335.733	40.500	25.205
162.900	55.430	60.497	29.049	37.638	1.000	14.087	335.902	40.500	20.094
163.000	55.389	18.517	29.049	37.637	1.000	7.745	336.257	40.500	10.701
163.100	55.331	-67.992	29.049	37.622	1.000	3.068	336.548	40.500	9.216
163.200	55.256	-124.898	29.050	37.574	1.000	-1.197	336.801	40.500	13.146
163.300	55.166	-168.731	29.050	37.530	1.000	-1.722	336.847	40.500	19.511
163.400	55.096	-222.941	29.050	37.511	1.000	2.890	336.579	40.500	22.786
163.500	55.049	-146.621	29.050	37.504	1.000	10.247	336.148	40.500	24.790
163.600	55.017	-22.115	29.050	37.501	1.000	17.807	335.707	40.500	27.187
163.700	54.994	49.350	29.050	37.501	1.000	21.655	335.491	40.500	27.200
163.800	54.970	104.370	29.050	37.489	1.000	22.234	335.465	40.500	27.200
163.900	54.935	114.236	29.050	37.447	1.000	21.950	335.470	40.500	27.200
164.000	54.912	101.795	29.050	37.402	1.000	22.132	335.450	40.500	27.589
164.100	54.912	111.288	29.050	37.383	1.000	23.561	335.357	40.500	28.790
164.200	54.887	128.448	29.049	37.376	1.000	27.356	335.118	40.500	31.527
164.300	54.864	167.008	29.049	37.374	1.000	31.248	334.892	40.500	31.996
164.400	54.863	218.336	29.049	37.373	1.000	32.302	334.823	40.500	31.604
164.500	54.864	236.167	29.049	37.371	1.000	32.103	334.826	40.500	31.600
164.600	54.864	234.113	29.049	37.342	1.000	32.189	334.810	40.500	31.996
164.700	54.864	232.005	29.049	37.296	1.000	33.737	334.701	40.500	33.555
164.800	54.864	253.529	29.049	37.268	1.000	37.134	334.496	40.500	34.786
164.900	54.875	295.539	29.049	37.258	1.000	39.252	334.368	40.500	34.800
165.000	54.892	315.944	29.049	37.255	1.000	39.535	334.339	40.500	34.800
165.100	54.904	320.748	29.049	37.254	1.000	39.335	334.341	40.500	34.405
165.200	54.912	321.479	29.049	37.252	1.000	39.214	334.344	40.500	34.400
165.300	54.928	316.879	29.049	37.229	1.000	39.279	334.329	40.500	34.794
165.400	54.941	319.773	29.048	37.184	1.000	39.513	334.299	40.500	34.800
165.500	54.948	322.720	29.048	37.154	1.000	39.474	334.295	40.500	34.402
165.600	54.962	320.040	29.048	37.143	1.000	39.281	334.301	40.500	34.400
165.700	54.962	322.906	29.048	37.139	1.000	39.335	334.293	40.500	34.798
165.800	54.985	316.415	29.048	37.138	1.000	39.423	334.279	40.500	34.800
165.900	55.009	317.895	29.048	37.137	1.000	39.425	334.259	40.500	34.800
166.000	55.009	325.497	29.048	37.127	1.000	38.825	334.279	40.500	33.638
166.100	55.009	312.376	29.048	37.093	1.000	36.257	334.425	40.500	32.410
166.200	55.009	291.975	29.048	37.057	1.000	33.679	334.578	40.500	32.003
166.300	55.009	255.924	29.048	37.043	1.000	32.430	334.654	40.500	31.604
166.400	55.009	228.853	29.048	37.037	1.000	31.423	334.719	40.500	31.204
166.500	54.998	229.473	29.048	37.035	1.000	30.654	334.765	40.500	30.804
166.600	54.996	216.463	29.048	37.034	1.000	30.399	334.777	40.500	30.800
166.700	54.987	207.829	29.048	37.026	1.000	30.353	334.779	40.500	30.800
166.800	54.962	213.607	29.047	36.996	1.000	30.381	334.772	40.500	31.195
166.900	54.963	206.605	29.047	36.960	1.000	30.472	334.763	40.500	31.200
167.000	54.962	213.251	29.047	36.944	1.000	30.547	334.757	40.500	31.200
167.100	54.951	219.628	29.047	36.938	1.000	30.613	334.758	40.500	31.200
167.200	54.933	209.044	29.047	36.937	1.000	30.546	334.770	40.500	31.200
167.300	54.921	219.526	29.047	36.936	1.000	30.622	334.762	40.500	31.200
167.400	54.911	216.838	29.047	36.933	1.000	30.736	334.746	40.500	31.200
167.500	54.912	210.929	29.047	36.914	1.000	30.721	334.746	40.500	31.200
167.600	54.912	222.137	29.046	36.878	1.000	30.650	334.754	40.500	31.200
167.700	54.911	210.884	29.046	36.855	1.000	30.624	334.753	40.500	31.200
167.800	54.905	214.971	29.046	36.847	1.000	30.580	334.752	40.500	31.200
167.900	54.890	219.705	29.046	36.843	1.000	30.634	334.743	40.500	31.200
168.000	54.883	207.310	29.046	36.842	1.000	30.793	334.734	40.500	31.200
168.100	54.878	221.060	29.046	36.841	1.000	31.135	334.721	40.500	31.597
168.200	54.864	221.246	29.046	36.826	1.000	33.388	334.580	40.500	33.979
168.300	54.863	234.655	29.046	36.792	1.000	36.803	334.376	40.500	34.000
168.400	54.877	288.544	29.046	36.766	1.000	38.188	334.298	40.500	34.396
168.500	54.903	307.191	29.046	36.757	1.000	38.076	334.301	40.500	34.004
168.600	54.912	307.451	29.046	36.755	1.000	37.998	334.301	40.500	34.000
168.700	54.912	304.249	29.046	36.754	1.000	37.951	334.299	40.500	34.000
168.800	54.911	295.295	29.046	36.752	1.000	37.944	334.293	40.500	34.000
168.900	54.912	300.833	29.046	36.745	1.000	37.932	334.283	40.500	34.000
169.000	54.922	308.552	29.046	36.720	1.000	38.023	334.274	40.500	34.000
169.100	54.946	304.939	29.046	36.689	1.000	38.123	334.275	40.500	34.000
169.200	54.955	302.024	29.046	36.677	1.000	38.041	334.276	40.500	34.000
169.300	54.952	311.534	29.046	36.672	1.000	38.001	334.268	40.500	34.000
169.400	54.962	302.135	29.046	36.669	1.000	38.071	334.261	40.500	34.000
169.500	54.961	302.800	29.046	36.668	1.000	38.121	334.257	40.500	34.000
169.600	54.961	310.238	29.045	36.663	1.000	38.075	334.255	40.500	34.000
169.700	54.980	298.500	29.045	36.640	1.000	38.016	334.257	40.500	34.000
169.800	55.009	306.647	29.045	36.607	1.000	37.892	334.265	40.500	34.000
169.900	55.009	306.563	29.045	36.593	1.000	37.610	334.270	40.500	34.000
170.000	55.009	290.775	29.045	36.589	1.000	37.408	334.279	40.500	33.610
170.100	55.009	297.224	29.045	36.587	1.000	37.048	334.301	40.500	33.600
170.200	55.018	298.198	29.045	36.586	1.000	36.806	334.313	40.500	33.600
170.300	55.025	283.591	29.045	36.585	1.000	36.830	334.313	40.500	33.600
170.400	55.018	291.452	29.044	36.572	1.000	36.710	334.317	40.500	33.600
170.500	55.042	294.091	29.044	36.542	1.000	36.734	334.317	40.500	33.600
170.600	55.052	282.954	29.044	36.521	1.000	36.872	334.309	40.500	33.600
170.700	55.049	295.517	29.044	36.514	1.000	36.945	334.293	40.500	33.600
170.800	55.059	291.427	29.044	36.511	1.000	36.920	334.295	40.500	33.600
170.900	55.059	286.746	29.044	36.510	1.000	36.965	334.289	40.500	33.600
171.000	55.060	295.272	29.044	36.508	1.000	37.034	334.274	40.500	33.600
171.100	55.060	285.858	29.043	36.493	1.000	37.057	334.274	40.500	33.600
171.200	55.059	294.460	29.043	36.466	1.000	37.001	334.281	40.500	33.600
171.300	55.079	291.801	29.043	36.450	1.000	36.797	334.290	40.500	33.600
171.400	55.101	280.430	29.044	36.444	1.000	36.631	334.300	40.500	33.600
171.500	55.106	291.559	29.043	36.441	1.000	36.373	334.314	40.500	33.201
171.600	55.106	278.484	29.043	36.441	1.000	36.020	334.331	40.500	33.200
171.700	55.106	280.545	29.043	36.440	1.000	36.551	334.242	40.500	37.570
171.800	55.175	333.489	29.043	36.429	1.000	67.352	332.173	40.500	99.131
171.900	55.376	828.851	29.043	36.401	1.000	115.999	329.363	40.500	100.000
172.000	55.576	1446.961	29.043	36.385	1.000	145.043	327.803	40.500	100.000
172.100	55.846	1585.839	29.043	36.380	1.000	154.236	327.200	40.500	100.000
172.200	56.088	1602.023	29.043	36.379	1.000	154.184	327.141	40.500	100.000
172.300	56.306	1577.160	29.043	36.378	1.000	153.883	327.076	40.500	100.000
172.400	56.559	1588.313	29.043	36.377	1.000	154.308	326.987	40.008	100.000
172.500	56.793	1598.680	29.042	36.366	1.000	154.403	326.922	40.000	100.000
172.600	57.015	1587.506	29.042	36.339	1.000	154.323	326.861	40.000	100.000
172.700	57.228	1567.547	29.042	36.328	1.000	154.265	326.809	40.000	100.000
172.800	57.454	1562.941	29.042	36.324	1.000	154.385	326.740	40.000	100.000
172.900	57.678	1561.473	29.042	36.322	1.000	154.299	326.683	40.000	100.000
173.000	57.894	1555.507	29.042	36.322	1.000	154.188	326.644	40.000	100.000
173.100	58.116	1551.141	29.042	36.321	1.000	154.234	326.604	40.000	100.000
173.200	58.316	1541.174	29.042	36.315	1.000	154.139	326.565	40.000	100.000
173.300	58.529	1512.868	29.041	36.295	1.000	154.077	326.513	40.000	100.000
173.400	58.751	1501.021	29.041	36.279	1.000	154.012	326.470	40.000	100.000
173.500	58.947	1510.476	29.041	36.274	1.000	153.979	326.424	40.000	100.000
173.600	59.155	1511.572	29.041	36.272	1.000	154.137	326.375	40.000	100.000
173.700	59.347	1492.090	29.041	36.271	1.000	154.155	326.336	40.000	100.000
173.800	59.543	1488.013	29.041	36.272	1.000	154.190	326.293	40.000	100.000
173.900	59.759	1491.484	29.041	36.267	1.000	154.334	326.238	40.000	100.000
174.000	59.969	1473.591	29.041	36.249	1.000	154.485	326.188	40.000	100.000
174.100	60.175	1477.836	29.041	36.233	1.000	154.534	326.152	40.000	100.000
174.200	60.368	1475.841	29.041	36.226	1.000	154.593	326.110	40.000	100.000
174.300	60.568	1462.920	29.041	36.225	1.000	154.801	326.052	40.000	100.000
174.400	60.763	1462.390	29.041	36.224	1.000	155.045	325.994	40.000	100.000
174.500	60.957	1463.919	29.041	36.225	1.000	155.318	325.948	40.000	100.000
174.600	61.153	1456.160	29.041	36.223	1.000	155.332	325.913	40.000	100.000
174.700	61.348	1447.361	29.040	36.214	1.000	155.236	325.876	40.000	100.000
174.800	61.540	1445.652	29.040	36.196	1.000	155.256	325.828	40.000	100.000
174.900	61.733	1438.791	29.040	36.189	1.000	155.261	325.791	40.000	100.000
175.000	61.901	1429.319	29.040	36.186	1.000	155.327	325.756	40.000	100.000
175.100	62.104	1427.543	29.040	36.184	1.000	155.240	325.723	40.000	100.000
175.200	62.272	1424.699	29.040	36.184	1.000	155.239	325.678	40.000	100.000
175.300	62.467	1409.989	29.040	36.183	1.000	155.351	325.636	40.000	100.000
175.400	62.669	1408.943	29.040	36.176	1.000	155.441	325.603	40.000	100.000
175.500	62.843	1411.426	29.040	36.160	1.000	155.491	325.570	40.000	100.000
175.600	63.012	1406.383	29.040	36.153	1.000	155.475	325.535	40.000	100.000
175.700	63.206	1397.789	29.040	36.149	1.000	155.488	325.500	40.000	100.000
175.800	63.395	1396.579	29.040	36.148	1.000	155.557	325.457	40.000	100.000
175.900	63.547	1390.088	29.040	36.147	1.000	155.595	325.409	40.000	100.000
176.000	63.738	1387.919	29.039	36.147	1.000	155.594	325.382	40.000	100.000
176.100	63.903	1377.443	29.038	36.144	1.000	155.449	325.362	40.000	100.000
176.200	64.111	1375.127	29.036	36.132	1.000	155.415	325.333	40.000	100.000
176.300	64.273	1371.873	29.036	36.121	1.000	155.552	325.288	40.000	100.000
176.400	64.441	1366.978	29.036	36.120	1.000	155.354	325.260	40.000	100.000
176.500	64.632	1360.450	29.036	36.119	1.000	155.204	325.238	40.000	100.000
176.600	64.805	1352.607	29.036	36.118	1.000	155.301	325.203	40.000	100.000
176.700	64.954	1352.167	29.036	36.117	1.000	155.325	325.168	40.000	100.000
176.800	65.148	1347.935	29.035	36.117	1.000	155.694	325.116	40.000	100.000
176.900	65.310	1347.890	29.033	36.110	1.000	155.877	325.079	40.000	100.000
177.000	65.486	1341.332	29.033	36.102	1.000	155.687	325.059	40.000	100.000
177.100	65.629	1337.709	29.033	36.098	1.000	155.682	325.032	40.000	100.000
177.200	65.784	1334.799	29.033	36.097	1.000	155.791	324.993	40.000	100.000
177.300	65.973	1335.745	29.033	36.097	1.000	155.641	324.965	39.507	100.000
177.400	66.138	1323.293	29.033	36.097	1.000	155.603	324.935	39.500	100.000
177.500	66.315	1321.664	29.033	36.096	1.000	155.652	324.901	39.500	100.000
177.600	66.463	1317.542	29.032	36.093	1.000	155.787	324.863	39.500	100.000
177.700	66.625	1312.156	29.032	36.087	1.000	155.845	324.831	39.500	100.000
177.800	66.772	1307.238	29.032	36.083	1.000	155.823	324.801	39.500	100.000
177.900	66.946	1307.174	29.033	36.081	1.000	155.980	324.761	39.500	100.000
178.000	67.091	1305.154	29.032	36.081	1.000	156.151	324.722	39.500	100.000
178.100	67.242	1300.843	29.033	36.080	1.000	155.199	324.749	39.500	100.000
178.200	67.404	1285.703	29.032	36.080	1.000	155.718	324.692	39.500	100.000
178.300	67.583	1299.609	29.031	36.077	1.000	156.621	324.608	39.500	100.000
178.400	67.732	1291.842	29.031	36.072	1.000	155.916	324.623	39.500	100.000
178.500	67.875	1285.242	29.031	36.070	1.000	155.892	324.598	39.500	100.000
178.600	68.035	1284.878	29.031	36.070	1.000	156.094	324.555	39.500	100.000
178.700	68.185	1281.256	29.031	36.069	1.000	156.092	324.532	39.500	100.000
178.800	68.360	1279.006	29.031	36.069	1.000	155.938	324.514	39.500	100.000
178.900	68.509	1269.367	29.031	36.069	1.000	156.030	324.474	39.500	100.000
179.000	68.654	1268.570	29.031	36.069	1.000	156.131	324.435	39.500	100.000
179.100	68.799	1268.561	29.030	36.065	1.000	156.054	324.419	39.500	100.000
179.200	68.959	1261.329	29.030	36.064	1.000	156.056	324.392	39.500	100.000
179.300	69.092	1257.767	29.030	36.063	1.000	156.118	324.367	39.500	100.000
179.400	69.252	1256.936	29.030	36.063	1.000	156.329	324.328	39.500	100.000
179.500	69.380	1257.628	29.030	36.061	1.000	156.578	324.278	39.500	100.000
179.600	69.527	1254.873	29.030	36.063	1.000	156.756	324.237	39.500	100.000
179.700	69.689	1250.533	29.030	36.062	1.000	156.961	324.200	39.500	100.000
179.800	69.834	1249.646	29.029	36.063	1.000	156.972	324.181	39.500	100.000
179.900	69.981	1245.806	29.028	36.062	1.000	156.800	324.158	39.500	100.000
180.000	70.112	1243.005	29.028	36.061	1.000	156.895	324.120	39.500	100.000
180.100	70.254	1241.058	29.029	36.061	1.000	156.975	324.099	39.500	100.000
180.200	70.418	1235.790	29.029	36.060	1.000	156.937	324.078	39.500	100.000
180.300	70.570	1230.646	29.029	36.061	1.000	157.004	324.041	39.500	100.000
180.400	70.698	1230.216	29.029	36.061	1.000	156.987	324.018	39.500	100.000
180.500	70.843	1228.525	29.027	36.060	1.000	156.918	323.995	39.500	100.000
180.600	70.991	1224.909	29.027	36.061	1.000	157.084	323.954	39.500	100.000
180.700	71.102	1225.127	29.027	36.060	1.000	157.355	323.913	39.500	100.000
180.800	71.248	1222.310	29.027	36.060	1.000	157.311	323.892	39.500	100.000
180.900	71.394	1216.918	29.027	36.061	1.000	157.227	323.867	39.500	100.000
181.000	71.525	1214.145	29.027	36.061	1.000	157.307	323.837	39.500	100.000
181.100	71.669	1217.239	29.027	36.060	1.000	157.509	323.810	39.500	100.000
181.200	71.782	1213.166	29.026	36.060	1.000	157.550	323.785	39.500	100.000
181.300	71.928	1206.150	29.025	36.061	1.000	157.550	323.758	39.500	100.000
181.400	72.073	1205.507	29.025	36.061	1.000	157.715	323.727	39.500	100.000
181.500	72.191	1205.176	29.025	36.061	1.000	157.733	323.694	39.500	100.000
181.600	72.319	1198.190	29.025	36.061	1.000	157.718	323.661	39.500	100.000
181.700	72.465	1204.429	29.025	36.060	1.000	157.777	323.632	39.500	100.000
181.800	72.600	1199.456	29.025	36.061	1.000	157.869	323.599	39.500	100.000
181.900	72.709	1195.179	29.025	36.060	1.000	157.974	323.564	39.500	100.000
182.000	72.854	1189.984	29.024	36.060	1.000	158.010	323.537	39.500	100.000
182.100	73.000	1187.084	29.023	36.057	1.000	158.042	323.517	39.004	100.000
182.200	73.100	1184.312	29.023	36.057	1.000	158.096	323.494	39.000	100.000
182.300	73.243	1184.050	29.023	36.056	1.000	158.121	323.469	39.000	100.000
182.400	73.376	1180.455	29.023	36.056	1.000	158.102	323.445	39.000	100.000
182.500	73.490	1189.656	29.023	36.055	1.000	158.029	323.424	39.000	100.000
182.600	73.623	1180.447	29.023	36.055	1.000	157.965	323.397	39.000	100.000
182.700	73.779	1173.311	29.023	36.054	1.000	158.443	323.347	39.000	100.000
182.800	73.881	1175.736	29.023	36.052	1.000	158.857	323.298	39.000	100.000
182.900	73.995	1173.247	29.023	36.052	1.000	158.704	323.280	39.000	100.000
183.000	74.121	1170.998	29.023	36.051	1.000	158.763	323.259	39.000	100.000
183.100	74.263	1169.658	29.022	36.052	1.000	158.726	323.240	39.000	100.000
183.200	74.396	1167.110	29.023	36.052	1.000	158.392	323.234	39.000	100.000
183.300	74.491	1165.671	29.023	36.052	1.000	158.042	323.232	39.000	100.000
183.400	74.606	1159.278	29.022	36.049	1.000	157.497	323.241	39.000	100.000
183.500	74.747	1149.466	29.022	36.044	1.000	156.605	323.266	39.000	100.000
183.600	74.867	1136.459	29.022	36.043	1.000	156.152	323.267	39.000	100.000
183.700	74.994	1139.923	29.022	36.041	1.000	156.269	323.244	39.000	100.000
183.800	75.101	1140.961	29.022	36.042	1.000	155.763	323.245	39.000	100.000
183.900	75.224	1127.143	29.022	36.040	1.000	154.982	323.255	39.000	100.000
184.000	75.339	1118.601	29.022	36.041	1.000	154.402	323.272	39.000	100.000
184.100	75.439	1115.887	29.021	36.038	1.000	153.935	323.292	39.000	100.000
184.200	75.535	1107.949	29.020	36.031	1.000	153.593	323.298	39.000	100.000
184.300	75.679	1102.364	29.021	36.023	1.000	153.095	323.305	39.000	100.000
184.400	75.779	1094.411	29.021	36.023	1.000	152.554	323.313	39.000	100.000
184.500	75.878	1095.099	29.021	36.022	1.000	152.037	323.325	39.000	100.000
184.600	75.975	1085.451	29.020	36.021	1.000	151.439	323.342	39.000	100.000
184.700	76.100	1077.296	29.020	36.021	1.000	150.953	323.352	39.000	100.000
184.800	76.215	1073.955	29.020	36.019	1.000	150.666	323.345	39.000	100.000
184.900	76.315	1071.939	29.020	36.009	1.000	150.128	323.351	39.000	100.000
185.000	76.396	1062.349	29.020	35.999	1.000	149.384	323.379	39.000	100.000
185.100	76.507	1053.804	29.020	35.996	1.000	149.068	323.389	39.000	100.000
185.200	76.610	1052.836	29.020	35.995	1.000	148.769	323.391	39.000	100.000
185.300	76.706	1045.814	29.020	35.994	1.000	148.194	323.400	39.000	100.000
185.400	76.805	1044.428	29.020	35.994	1.000	147.552	323.419	39.000	100.000
185.500	76.902	1039.271	29.020	35.993	1.000	147.204	323.426	39.000	100.000
185.600	77.001	1036.559	29.021	35.981	1.000	146.918	323.427	39.000	100.000
185.700	77.096	1032.506	29.021	35.969	1.000	146.331	323.443	39.000	100.000
185.800	77.193	1025.540	29.021	35.963	1.000	145.816	323.449	39.000	100.000
185.900	77.280	1020.521	29.021	35.961	1.000	145.547	323.443	39.000	100.000
186.000	77.374	1013.168	29.021	35.960	1.000	145.126	323.445	39.000	100.000
186.100	77.456	1004.973	29.021	35.960	1.000	144.665	323.458	39.000	100.000
186.200	77.550	1004.555	29.021	35.960	1.000	144.243	323.474	39.000	100.000
186.300	77.647	1001.348	29.022	35.952	1.000	143.863	323.478	39.000	100.000
186.400	77.731	997.887	29.022	35.933	1.000	143.627	323.475	39.000	100.000
186.500	77.825	991.411	29.022	35.921	1.000	142.980	323.494	39.000	100.000
186.600	77.923	988.573	29.022	35.916	1.000	142.324	323.521	39.000	100.000
186.700	78.008	982.689	29.022	35.914	1.000	142.329	323.505	39.000	100.000
186.800	78.075	980.876	29.022	35.914	1.000	142.257	323.490	39.000	100.000
186.900	78.168	979.350	29.022	35.913	1.000	141.789	323.501	39.000	100.000
187.000	78.251	974.538	29.022	35.906	1.000	141.586	323.493	39.000	100.000
187.100	78.319	968.526	29.023	35.882	1.000	141.540	323.484	38.507	100.000
187.200	78.410	965.983	29.023	35.867	1.000	141.140	323.497	38.500	100.000
187.300	78.507	963.429	29.022	35.862	1.000	140.717	323.507	38.500	100.000
187.400	78.579	960.731	29.022	35.861	1.000	140.191	323.528	38.500	100.000
187.500	78.658	955.169	29.022	35.858	1.000	139.775	323.535	38.500	100.000
187.600	78.726	947.997	29.022	35.858	1.000	139.521	323.530	38.500	100.000
187.700	78.805	951.333	29.022	35.856	1.000	139.137	323.542	38.500	100.000
187.800	78.898	950.433	29.022	35.832	1.000	138.789	323.543	38.500	100.000
187.900	78.983	941.263	29.022	35.809	1.000	138.457	323.542	38.500	100.000
188.000	79.049	936.346	29.022	35.798	1.000	138.211	323.550	38.500	100.000
188.100	79.139	939.956	29.022	35.794	1.000	137.914	323.556	38.500	100.000
188.200	79.199	933.904	29.022	35.792	1.000	137.585	323.561	38.500	100.000
188.300	79.249	928.498	29.022	35.791	1.000	136.912	323.583	38.500	100.000
188.400	79.336	926.146	29.022	35.790	1.000	136.524	323.599	38.500	100.000
188.500	79.406	924.082	29.022	35.768	1.000	136.748	323.578	38.500	100.000
188.600	79.496	919.901	29.022	35.739	1.000	136.404	323.578	38.500	100.000
188.700	79.556	911.897	29.021	35.727	1.000	135.717	323.598	38.500	100.000
188.800	79.604	908.696	29.021	35.722	1.000	135.322	323.608	38.500	100.000
188.900	79.680	901.719	29.022	35.719	1.000	135.244	323.605	38.500	100.000
189.000	79.748	902.158	29.021	35.719	1.000	135.257	323.589	38.500	100.000
189.100	79.828	902.094	29.021	35.719	1.000	134.987	323.592	38.500	100.000
189.200	79.921	896.599	29.022	35.706	1.000	134.399	323.618	38.500	100.000
189.300	79.980	889.783	29.022	35.674	1.000	133.886	323.641	38.500	100.000
189.400	80.029	886.931	29.022	35.653	1.000	133.809	323.634	38.500	100.000
189.500	80.112	886.540	29.022	35.643	1.000	133.702	323.631	38.500	100.000
189.600	80.171	886.656	29.022	35.640	1.000	133.334	323.638	38.500	100.000
189.700	80.222	882.298	29.022	35.640	1.000	132.909	323.644	38.500	100.000
189.800	80.270	876.830	29.022	35.639	1.000	132.458	323.662	38.500	100.000
189.900	80.356	873.321	29.022	35.628	1.000	132.350	323.653	38.500	100.000
190.000	80.416	872.404	29.022	35.593	1.000	132.306	323.635	38.500	100.000
190.100	80.478	868.564	29.022	35.569	1.000	131.540	323.667	38.500	100.000
190.200	80.532	862.751	29.023	35.559	1.000	130.700	323.714	38.500	100.000
190.300	80.580	855.530	29.022	35.554	1.000	129.630	323.764	38.500	100.000
190.400	80.652	847.135	29.023	35.553	1.000	128.499	323.813	38.500	100.000
190.500	80.710	840.517	29.023	35.553	1.000	127.585	323.865	38.500	100.000
190.600	80.757	828.527	29.023	35.550	1.000	126.303	323.938	38.500	100.000
190.700	80.806	819.359	29.022	35.521	1.000	125.499	323.975	38.500	100.000
190.800	80.856	813.448	29.022	35.486	1.000	124.774	324.008	38.500	100.000
190.900	80.917	808.069	29.022	35.469	1.000	123.453	324.070	38.500	96.048
191.000	80.957	796.285	29.022	35.463	1.000	121.986	324.142	38.500	80.525
191.100	81.000	783.357	29.022	35.461	1.000	116.780	324.422	38.500	68.166
191.200	81.027	735.829	29.022	35.460	1.000	103.161	325.180	38.500	59.715
191.300	81.032	625.037	29.022	35.457	1.000	88.507	326.054	38.500	54.870
191.400	81.033	513.250	29.022	35.428	1.000	80.464	326.574	38.500	54.402
191.500	80.997	459.622	29.022	35.392	1.000	75.682	326.877	38.500	52.808
191.600	80.982	423.991	29.022	35.371	1.000	69.568	327.255	38.500	50.811
191.700	80.948	372.512	29.022	35.364	1.000	62.768	327.678	38.500	47.674
191.800	80.910	322.186	29.022	35.361	1.000	57.580	328.017	38.500	46.408
191.900	80.868	282.968	29.022	35.362	1.000	54.334	328.242	38.500	44.017
192.000	80.819	258.209	29.022	35.361	1.000	50.436	328.492	38.500	42.442
192.100	80.771	224.291	29.022	35.346	1.000	45.951	328.792	38.500	40.418
192.200	80.723	188.783	29.023	35.304	1.000	41.035	329.117	38.500	38.419
192.300	80.639	148.629	29.023	35.274	1.000	37.396	329.370	38.500	38.007
192.400	80.575	119.251	29.023	35.262	1.000	36.589	329.460	38.500	38.000
192.500	80.516	118.190	29.023	35.259	1.000	37.131	329.460	38.500	38.396
192.600	80.463	128.316	29.023	35.258	1.000	39.766	329.320	38.500	40.774
192.700	80.413	158.033	29.023	35.257	1.000	44.223	329.086	38.500	41.987
192.800	80.364	188.452	29.023	35.244	1.000	46.244	329.000	38.500	42.000
192.900	80.315	196.016	29.023	35.201	1.000	46.069	329.024	38.500	42.000
193.000	80.267	196.642	29.024	35.166	1.000	47.735	328.930	38.500	44.329
193.100	80.219	218.263	29.023	35.153	1.000	52.678	328.651	38.500	45.979
193.200	80.170	264.945	29.023	35.148	1.000	57.389	328.411	38.500	46.796
193.300	80.121	300.422	29.023	35.147	1.000	58.715	328.346	38.500	46.800
193.400	80.105	303.062	29.023	35.145	1.000	58.248	328.371	38.500	46.800
193.500	80.071	296.434	29.024	35.143	1.000	57.989	328.398	38.500	46.800
193.600	80.034	297.690	29.024	35.113	1.000	58.882	328.352	38.500	47.592
193.700	79.997	306.370	29.024	35.072	1.000	61.806	328.185	38.500	49.155
193.800	79.978	333.641	29.024	35.049	1.000	65.690	327.954	38.500	50.383
193.900	79.964	365.467	29.024	35.039	1.000	68.999	327.768	38.500	51.194
194.000	79.937	392.130	29.025	35.037	1.000	70.760	327.683	38.500	51.200
194.100	79.915	403.572	29.025	35.036	1.000	71.183	327.664	38.500	51.594
194.200	79.909	405.716	29.025	35.034	1.000	71.876	327.617	38.500	51.994
194.300	79.908	412.986	29.025	35.007	1.000	72.338	327.591	38.500	52.000
194.400	79.908	416.749	29.025	34.963	1.000	72.564	327.577	38.004	52.000
194.500	79.877	419.225	29.025	34.935	1.000	73.754	327.500	38.000	53.188
194.600	79.860	426.722	29.025	34.925	1.000	75.476	327.400	38.000	53.990
194.700	79.861	440.709	29.025	34.922	1.000	76.998	327.314	38.000	54.394
194.800	79.860	456.471	29.025	34.921	1.000	78.266	327.237	38.000	54.798
194.900	79.861	463.705	29.025	34.920	1.000	79.100	327.174	38.000	54.800
195.000	79.861	468.178	29.025	34.907	1.000	79.287	327.164	38.000	54.411
195.100	79.845	472.346	29.026	34.863	1.000	78.156	327.230	38.000	53.633
195.200	79.831	466.706	29.026	34.824	1.000	76.802	327.310	38.000	53.224
195.300	79.818	453.098	29.026	34.808	1.000	76.838	327.303	38.000	53.591
195.400	79.812	454.093	29.026	34.803	1.000	79.068	327.157	38.000	55.574
195.500	79.812	469.223	29.026	34.801	1.000	81.520	327.024	38.000	56.379
195.600	79.827	486.865	29.026	34.800	1.000	82.283	326.982	38.000	56.400
195.700	79.837	495.270	29.026	34.791	1.000	82.392	326.968	38.000	56.003
195.800	79.837	498.090	29.026	34.750	1.000	83.231	326.917	38.000	56.397
195.900	79.837	504.646	29.027	34.709	1.000	83.839	326.872	38.000	56.400
196.000	79.822	509.345	29.027	34.691	1.000	83.663	326.877	38.000	56.400
196.100	79.813	506.583	29.027	34.685	1.000	83.334	326.902	38.000	56.400
196.200	79.812	503.224	29.027	34.682	1.000	83.377	326.897	38.000	56.400
196.300	79.812	505.450	29.027	34.681	1.000	83.573	326.881	38.000	56.400
196.400	79.827	507.229	29.027	34.679	1.000	83.539	326.874	38.000	56.400
196.500	79.851	507.198	29.027	34.652	1.000	83.487	326.875	38.000	56.400
196.600	79.845	505.657	29.026	34.606	1.000	83.529	326.869	38.000	56.400
196.700	79.836	504.456	29.026	34.578	1.000	83.582	326.862	38.000	56.400
196.800	79.837	504.448	29.026	34.568	1.000	83.621	326.859	38.000	56.400
196.900	79.837	506.196	29.026	34.563	1.000	83.675	326.855	38.000	56.400
197.000	79.851	507.064	29.026	34.563	1.000	83.839	326.839	38.000	56.400
197.100	79.861	508.744	29.026	34.562	1.000	84.309	326.811	38.000	56.792
197.200	79.860	513.164	29.026	34.537	1.000	84.767	326.783	38.000	56.800
197.300	79.860	515.384	29.026	34.494	1.000	84.783	326.769	38.000	56.800
197.400	79.860	516.943	29.026	34.464	1.000	84.645	326.763	38.000	56.800
197.500	79.861	516.574	29.026	34.453	1.000	84.689	326.767	38.000	56.800
197.600	79.861	514.303	29.026	34.449	1.000	84.758	326.765	38.000	56.800
197.700	79.861	514.554	29.026	34.449	1.000	84.713	326.762	38.000	56.800
197.800	79.861	514.329	29.026	34.448	1.000	84.812	326.750	38.000	56.800
197.900	79.874	514.550	29.026	34.437	1.000	84.736	326.743	38.000	56.800
198.000	79.886	515.384	29.026	34.398	1.000	84.698	326.744	38.000	56.800
198.100	79.886	513.486	29.026	34.361	1.000	84.894	326.742	38.000	56.800
198.200	79.886	512.697	29.026	34.345	1.000	84.972	326.734	38.000	56.800
198.300	79.885	516.027	29.026	34.339	1.000	85.052	326.718	38.000	56.800
198.400	79.897	518.342	29.026	34.338	1.000	85.114	326.707	38.000	56.800
198.500	79.908	518.414	29.026	34.337	1.000	85.245	326.699	38.000	57.196
198.600	79.909	519.917	29.026	34.331	1.000	85.107	326.705	38.000	56.805
198.700	79.909	519.048	29.027	34.297	1.000	84.753	326.722	38.000	56.800
198.800	79.909	514.828	29.027	34.258	1.000	84.567	326.731	38.000	56.800
198.900	79.909	514.206	29.027	34.240	1.000	84.449	326.728	38.000	56.800
199.000	79.908	513.882	29.027	34.234	1.000	84.465	326.723	38.000	56.800
199.100	79.909	512.628	29.027	34.231	1.000	84.447	326.735	38.000	56.800
199.200	79.908	512.644	29.027	34.230	1.000	84.339	326.735	38.000	56.406
199.300	79.909	512.417	29.027	34.228	1.000	84.163	326.740	38.000	56.400
199.400	79.922	510.023	29.027	34.205	1.000	84.138	326.744	38.000	56.400
199.500	79.934	509.063	29.027	34.168	1.000	84.086	326.741	38.000	56.400
199.600	79.935	510.070	29.027	34.144	1.000	84.012	326.743	38.000	56.400
199.700	79.930	508.620	29.027	34.134	1.000	83.878	326.749	38.000	56.400
199.800	79.917	507.147	29.027	34.131	1.000	84.042	326.734	38.000	56.797
199.900	79.909	508.583	29.027	34.130	1.000	84.261	326.708	38.000	56.405
200.000	79.926	510.323	29.027	34.128	1.000	84.359	326.700	38.000	56.797
200.100	79.950	511.695	29.027	34.110	1.000	84.513	326.693	38.000	56.800
200.200	79.958	512.590	29.027	34.072	1.000	84.583	326.684	38.000	56.407
200.300	79.957	513.931	29.027	34.044	1.000	84.485	326.687	38.000	56.795
200.400	79.958	512.739	29.027	34.035	1.000	84.595	326.683	38.000	56.800
200.500	79.958	511.219	29.027	34.031	1.000	84.893	326.663	38.000	56.800
200.600	79.957	514.379	29.027	34.031	1.000	84.902	326.654	38.000	56.800
200.700	79.957	517.254	29.027	34.031	1.000	84.638	326.673	38.000	56.800
200.800	79.957	516.748	29.027	34.023	1.000	84.378	326.688	38.000	56.800
200.900	79.958	514.460	29.027	33.991	1.000	84.704	326.670	38.000	56.800
201.000	79.971	516.336	29.027	33.956	1.000	84.989	326.646	38.000	56.800
201.100	79.979	518.247	29.027	33.940	1.000	84.877	326.653	38.000	56.800
201.200	79.966	516.382	29.027	33.934	1.000	84.610	326.672	38.000	56.800
201.300	79.959	514.083	29.027	33.932	1.000	84.633	326.667	38.000	56.800
201.400	79.959	512.661	29.027	33.932	1.000	84.641	326.657	38.000	56.800
201.500	79.970	510.184	29.027	33.926	1.000	84.502	326.651	38.000	56.800
201.600	79.987	509.856	29.028	33.898	1.000	84.589	326.643	38.000	56.800
201.700	79.999	512.661	29.028	33.863	1.000	84.695	326.637	38.000	56.800
201.800	80.008	513.938	29.028	33.847	1.000	84.786	326.631	38.000	56.800
201.900	79.997	514.609	29.028	33.841	1.000	84.877	326.624	38.000	56.800
202.000	79.988	514.464	29.028	33.840	1.000	84.795	326.625	38.000	56.800
202.100	80.000	515.921	29.028	33.839	1.000	85.031	326.617	38.000	56.800
202.200	80.007	517.954	29.028	33.838	1.000	85.246	326.606	38.000	56.800
202.300	80.008	521.376	29.028	33.820	1.000	85.004	326.609	38.000	56.800
202.400	80.009	518.711	29.027	33.785	1.000	84.797	326.615	38.000	56.800
202.500	80.009	513.123	29.027	33.761	1.000	84.792	326.612	38.000	56.800
202.600	80.008	514.387	29.027	33.752	1.000	85.004	326.598	38.000	56.800
202.700	80.008	515.399	29.027	33.749	1.000	85.056	326.589	38.000	56.800
202.800	80.007	515.420	29.027	33.749	1.000	84.906	326.593	38.000	56.800
202.900	80.007	515.388	29.027	33.748	1.000	84.751	326.597	38.000	56.800
203.000	80.007	514.233	29.027	33.733	1.000	84.692	326.601	38.000	56.800
203.100	80.018	512.602	29.027	33.700	1.000	84.574	326.611	38.000	56.406
203.200	80.033	512.185	29.027	33.674	1.000	84.057	326.634	38.000	56.006
203.300	80.031	509.678	29.027	33.665	1.000	82.273	326.728	38.000	55.212
203.400	80.032	500.428	29.026	33.661	1.000	80.669	326.830	38.000	54.802
203.500	80.022	485.937	29.026	33.661	1.000	79.500	326.902	38.000	54.005
203.600	80.007	474.975	29.026	33.661	1.000	78.464	326.959	37.503	53.602
203.700	80.008	467.139	29.026	33.657	1.000	74.408	327.145	37.500	49.229
203.800	79.975	440.576	29.026	33.635	1.000	44.482	328.734	37.500	14.250
203.900	79.895	288.039	29.026	33.603	1.000	9.607	330.823	37.500	0.118
204.000	79.801	-18.762	29.026	33.585	1.000	10.395	330.971	37.500	0.000
204.100	79.698	-163.765	29.026	33.579	1.000	6.776	331.179	37.500	0.000
204.200	79.572	-96.333	29.026	33.577	1.000	-13.653	332.424	37.500	0.000
204.300	79.399	-238.384	29.026	33.576	1.000	-32.516	333.613	37.500	0.000
204.400	79.233	-492.262	29.026	33.575	1.000	-42.474	334.287	37.500	0.000
204.500	79.039	-574.224	29.025	33.557	1.000	-41.279	334.340	37.500	0.000
204.600	78.855	-604.875	29.025	33.525	1.000	-39.203	334.290	37.500	0.000
204.700	78.686	-571.686	29.025	33.506	1.000	-40.062	334.393	37.500	0.000
204.800	78.501	-571.471	29.025	33.500	1.000	-40.591	334.482	37.500	0.000
204.900	78.307	-586.689	29.025	33.498	1.000	-40.624	334.534	37.500	0.000
205.000	78.113	-583.451	29.025	33.497	1.000	-40.869	334.605	37.500	0.000
205.100	77.938	-584.130	29.025	33.496	1.000	-40.840	334.665	37.500	0.000
205.200	77.771	-589.339	29.025	33.487	1.000	-41.076	334.727	37.500	0.000
205.300	77.577	-591.805	29.025	33.462	1.000	-42.468	334.853	37.500	0.000
205.400	77.381	-602.209	29.025	33.437	1.000	-44.144	335.005	37.500	0.000
205.500	77.185	-620.065	29.025	33.427	1.000	-44.680	335.085	37.993	0.000
205.600	77.002	-632.343	29.025	33.423	1.000	-46.346	335.212	38.000	0.000
205.700	76.829	-644.464	29.025	33.423	1.000	-50.264	335.479	38.000	0.000
205.800	76.619	-681.605	29.025	33.422	1.000	-54.544	335.786	38.000	0.000
205.900	76.395	-734.333	29.026	33.413	1.000	-58.441	336.056	38.000	0.000
206.000	76.168	-787.399	29.026	33.387	1.000	-61.711	336.288	38.000	0.000
206.100	75.922	-832.612	29.026	33.362	1.000	-64.349	336.508	38.000	0.000
206.200	75.675	-867.824	29.026	33.352	1.000	-66.541	336.693	38.000	0.000
206.300	75.420	-899.828	29.026	33.348	1.000	-69.592	336.914	38.000	0.000
206.400	75.185	-938.621	29.026	33.347	1.000	-72.325	337.130	38.000	0.000
206.500	74.942	-972.484	29.026	33.347	1.000	-73.386	337.267	38.000	0.000
206.600	74.692	-986.659	29.026	33.342	1.000	-73.347	337.322	38.000	0.000
206.700	74.431	-987.642	29.026	33.316	1.000	-72.530	337.312	38.000	0.000
206.800	74.181	-971.496	29.026	33.295	1.000	-68.551	337.108	38.000	0.000
206.900	73.940	-908.657	29.026	33.286	1.000	-61.953	336.767	38.000	0.000
207.000	73.732	-819.559	29.026	33.282	1.000	-57.155	336.553	38.000	0.000
207.100	73.510	-778.085	29.026	33.282	1.000	-55.948	336.530	38.000	0.000
207.200	73.306	-780.101	29.026	33.281	1.000	-56.224	336.578	38.000	0.000
207.300	73.102	-784.459	29.026	33.277	1.000	-56.717	336.646	38.000	0.000
207.400	72.850	-795.143	29.026	33.249	1.000	-57.804	336.746	38.000	0.000
207.500	72.649	-811.628	29.026	33.229	1.000	-59.033	336.851	38.000	0.000
207.600	72.442	-837.475	29.026	33.223	1.000	-59.646	336.930	38.000	0.000
207.700	72.212	-835.036	29.026	33.219	1.000	-59.552	336.961	38.000	0.000
207.800	71.997	-828.795	29.026	33.219	1.000	-58.894	336.958	38.000	0.000
207.900	71.793	-826.243	29.026	33.220	1.000	-58.811	336.989	38.000	0.000
208.000	71.557	-831.527	29.025	33.216	1.000	-58.822	337.027	38.000	0.000
208.100	71.363	-826.617	29.025	33.199	1.000	-58.267	337.040	38.000	0.000
208.200	71.163	-822.603	29.025	33.178	1.000	-58.083	337.071	38.000	0.000
208.300	70.937	-828.892	29.025	33.171	1.000	-58.164	337.107	38.000	0.000
208.400	70.732	-826.410	29.025	33.167	1.000	-58.168	337.138	38.000	0.000
208.500	70.529	-831.747	29.025	33.165	1.000	-58.185	337.173	38.000	0.000
208.600	70.292	-832.239	29.025	33.165	1.000	-58.197	337.206	38.000	0.000
208.700	70.098	-832.621	29.025	33.163	1.000	-58.156	337.243	38.000	0.000
208.800	69.901	-835.435	29.024	33.148	1.000	-58.317	337.286	38.000	0.000
208.900	69.670	-839.170	29.024	33.124	1.000	-58.573	337.326	38.000	0.000
209.000	69.463	-847.129	29.025	33.115	1.000	-58.681	337.373	38.000	0.000
209.100	69.264	-846.993	29.025	33.112	1.000	-58.601	337.409	38.000	0.000
209.200	69.034	-839.743	29.024	33.111	1.000	-58.351	337.422	38.000	0.000
209.300	68.841	-836.958	29.025	33.111	1.000	-57.339	337.385	38.000	0.000
209.400	68.646	-813.760	29.025	33.111	1.000	-54.531	337.248	38.000	0.000
209.500	68.455	-772.278	29.024	33.102	1.000	-51.026	337.082	38.000	0.000
209.600	68.283	-740.869	29.024	33.081	1.000	-49.299	337.017	38.000	0.000
209.700	68.061	-734.025	29.024	33.068	1.000	-49.228	337.039	38.000	0.000
209.800	67.869	-731.887	29.024	33.063	1.000	-49.316	337.067	38.000	0.000
209.900	67.696	-740.607	29.024	33.060	1.000	-49.693	337.108	38.000	0.000
210.000	67.512	-750.151	29.024	33.060	1.000	-50.114	337.160	38.000	0.000
210.100	67.329	-754.441	29.024	33.060	1.000	-50.206	337.198	38.000	0.000
210.200	67.119	-760.448	29.025	33.055	1.000	-50.276	337.229	38.000	0.000
210.300	66.943	-761.153	29.025	33.034	1.000	-50.578	337.277	38.000	0.000
210.400	66.742	-764.505	29.025	33.022	1.000	-50.643	337.308	38.000	0.000
210.500	66.551	-767.871	29.025	33.017	1.000	-50.617	337.333	38.000	0.000
210.600	66.354	-775.032	29.025	33.015	1.000	-50.783	337.375	38.000	0.000
210.700	66.160	-772.618	29.025	33.014	1.000	-51.180	337.425	38.000	0.000
210.800	65.971	-781.258	29.025	33.014	1.000	-51.837	337.489	38.000	0.000
210.900	65.772	-796.923	29.025	33.011	1.000	-52.626	337.563	38.000	0.000
211.000	65.575	-810.105	29.025	32.998	1.000	-53.301	337.626	38.000	0.000
211.100	65.364	-818.993	29.025	32.981	1.000	-53.683	337.672	38.000	0.000
211.200	65.158	-824.621	29.025	32.973	1.000	-53.994	337.727	38.000	0.000
211.300	64.949	-831.884	29.025	32.970	1.000	-54.227	337.779	38.000	0.000
211.400	64.781	-834.430	29.025	32.970	1.000	-54.548	337.822	38.000	0.000
211.500	64.556	-844.218	29.025	32.969	1.000	-54.805	337.864	38.000	0.000
211.600	64.364	-850.465	29.025	32.968	1.000	-54.819	337.892	38.000	0.000
211.700	64.166	-848.979	29.025	32.956	1.000	-54.927	337.928	38.000	0.000
211.800	63.969	-852.653	29.025	32.940	1.000	-54.977	337.960	38.000	0.000
211.900	63.728	-852.128	29.025	32.931	1.000	-55.060	337.986	38.000	0.000
212.000	63.551	-859.087	29.025	32.928	1.000	-55.265	338.027	38.000	0.000
212.100	63.337	-865.430	29.025	32.927	1.000	-55.181	338.059	38.000	0.000
212.200	63.140	-860.078	29.025	32.925	1.000	-54.999	338.077	38.000	0.000
212.300	62.948	-857.624	29.025	32.925	1.000	-55.021	338.102	38.000	0.000
212.400	62.720	-866.561	29.025	32.921	1.000	-54.918	338.123	38.000	0.000
212.500	62.538	-862.280	29.025	32.903	1.000	-54.932	338.151	38.000	0.000
212.600	62.304	-867.109	29.025	32.890	1.000	-55.064	338.183	38.000	0.000
212.700	62.112	-871.314	29.025	32.885	1.000	-55.016	338.209	38.000	0.000
212.800	61.884	-877.858	29.025	32.884	1.000	-54.978	338.234	38.000	0.000
212.900	61.719	-876.642	29.025	32.885	1.000	-54.981	338.259	38.000	0.000
213.000	61.508	-875.903	29.025	32.883	1.000	-54.760	338.272	38.000	0.000
213.100	61.297	-876.192	29.025	32.879	1.000	-54.556	338.287	38.000	0.000
213.200	61.087	-875.646	29.025	32.860	1.000	-54.416	338.308	38.000	0.000
213.300	60.888	-873.958	29.024	32.848	1.000	-54.131	338.315	38.000	0.000
213.400	60.699	-870.038	29.024	32.842	1.000	-53.797	338.317	38.000	0.000
213.500	60.504	-873.853	29.024	32.841	1.000	-53.626	338.331	38.000	0.000
213.600	60.306	-871.424	29.025	32.840	1.000	-53.463	338.340	38.000	0.000
213.700	60.095	-870.511	29.025	32.841	1.000	-53.188	338.344	38.000	0.000
213.800	59.883	-867.712	29.024	32.840	1.000	-52.954	338.358	38.000	0.000
213.900	59.702	-872.426	29.024	32.827	1.000	-52.751	338.369	38.000	0.000
214.000	59.480	-857.892	29.025	32.809	1.000	-52.612	338.385	38.000	0.000
214.100	59.302	-870.672	29.024	32.802	1.000	-52.341	338.400	38.000	0.000
214.200	59.090	-861.307	29.024	32.800	1.000	-52.004	338.404	38.000	0.000
214.300	58.896	-868.240	29.025	32.799	1.000	-51.854	338.414	38.000	0.000
214.400	58.696	-859.255	29.024	32.799	1.000	-51.656	338.421	38.000	0.000
214.500	58.514	-861.778	29.024	32.797	1.000	-51.499	338.440	38.000	0.000
214.600	58.308	-876.361	29.024	32.789	1.000	-51.370	338.462	38.000	0.000
214.700	58.114	-866.275	29.024	32.770	1.000	-51.205	338.474	38.000	0.000
214.800	57.919	-852.199	29.024	32.763	1.000	-51.151	338.490	38.000	0.000
214.900	57.755	-852.812	29.024	32.759	1.000	-51.093	338.503	38.000	0.000
215.000	57.526	-860.528	29.024	32.758	1.000	-50.859	338.509	38.000	0.000
215.100	57.343	-881.545	29.024	32.757	1.000	-50.729	338.527	38.000	0.000
215.200	57.137	-881.083	29.024	32.758	1.000	-50.592	338.542	38.000	0.000
215.300	56.941	-879.052	29.024	32.753	1.000	-50.405	338.550	38.000	0.000
215.400	56.745	-892.169	29.024	32.734	1.000	-50.408	338.577	38.000	0.000
215.500	56.552	-888.236	29.024	32.720	1.000	-50.377	338.594	38.000	0.000
215.600	56.357	-878.105	29.024	32.716	1.000	-50.270	338.612	38.000	0.000
215.700	56.173	-880.157	29.024	32.714	1.000	-50.174	338.635	38.000	0.000
215.800	55.977	-860.591	29.024	32.713	1.000	-50.108	338.649	38.000	0.000
215.900	55.786	-854.540	29.023	32.715	1.000	-50.016	338.662	38.000	0.000
216.000	55.588	-878.278	29.024	32.711	1.000	-49.728	338.668	38.000	0.000
216.100	55.393	-885.340	29.023	32.692	1.000	-49.407	338.680	38.000	0.000
216.200	55.201	-867.881	29.023	32.678	1.000	-49.191	338.693	38.000	0.000
216.300	55.007	-862.402	29.023	32.673	1.000	-49.008	338.699	38.000	0.000
216.400	54.811	-877.642	29.023	32.671	1.000	-48.854	338.709	38.000	0.000
216.500	54.612	-872.192	29.023	32.670	1.000	-48.503	338.707	38.000	0.000
216.600	54.448	-863.576	29.023	32.671	1.000	-48.151	338.703	38.000	0.000
216.700	54.228	-865.274	29.023	32.669	1.000	-47.883	338.707	38.000	0.000
216.800	54.048	-859.282	29.023	32.658	1.000	-47.768	338.723	38.000	0.000
216.900	53.887	-869.809	29.023	32.640	1.000	-47.599	338.732	38.000	0.000
217.000	53.674	-852.488	29.023	32.632	1.000	-47.283	338.728	38.000	0.000
217.100	53.495	-866.520	29.023	32.628	1.000	-47.150	338.748	38.000	0.000
217.200	53.295	-865.224	29.023	32.625	1.000	-46.976	338.761	38.000	0.000
217.300	53.105	-857.134	29.023	32.626	1.000	-46.789	338.765	38.000	0.000
217.400	52.937	-870.519	29.023	32.626	1.000	-46.676	338.777	38.000	0.000
217.500	52.717	-860.533	29.023	32.615	1.000	-46.344	338.773	38.000	0.000
217.600	52.533	-856.464	29.023	32.595	1.000	-45.996	338.771	38.000	0.000
217.700	52.373	-858.186	29.022	32.586	1.000	-45.864	338.783	38.000	0.000
217.800	52.177	-851.347	29.023	32.583	1.000	-45.764	338.798	38.000	0.000
217.900	51.986	-864.226	29.023	32.581	1.000	-45.692	338.810	38.000	0.000
218.000	51.785	-856.395	29.023	32.581	1.000	-45.650	338.823	38.000	0.000
218.100	51.610	-860.036	29.023	32.580	1.000	-45.537	338.843	38.000	0.000
218.200	51.439	-866.799	29.023	32.576	1.000	-45.386	338.860	38.000	0.000
218.300	51.251	-855.645	29.023	32.554	1.000	-45.206	338.866	38.000	0.000
218.400	51.057	-865.819	29.023	32.540	1.000	-45.004	338.864	38.000	0.000
218.500	50.862	-854.778	29.023	32.535	1.000	-44.978	338.881	38.000	0.000
218.600	50.679	-863.830	29.023	32.533	1.000	-44.890	338.895	38.000	0.000
218.700	50.522	-870.221	29.023	32.532	1.000	-44.818	338.911	38.000	0.000
218.800	50.326	-857.975	29.022	32.532	1.000	-44.734	338.924	38.000	0.000
218.900	50.129	-874.301	29.023	32.530	1.000	-44.503	338.926	38.000	0.000
219.000	49.926	-862.322	29.023	32.509	1.000	-44.188	338.926	38.000	0.000
219.100	49.741	-863.139	29.023	32.493	1.000	-43.858	338.930	38.000	0.000
219.200	49.582	-860.548	29.023	32.486	1.000	-43.746	338.942	38.000	0.000
219.300	49.388	-858.571	29.023	32.483	1.000	-43.635	338.946	38.000	0.000
219.400	49.194	-864.161	29.023	32.483	1.000	-43.307	338.940	38.000	0.000
219.500	49.028	-850.717	29.023	32.483	1.000	-43.090	338.942	38.000	0.000
219.600	48.854	-866.998	29.023	32.482	1.000	-43.011	338.955	38.000	0.000
219.700	48.665	-856.947	29.023	32.468	1.000	-42.793	338.965	38.000	0.000
219.800	48.467	-860.640	29.023	32.446	1.000	-42.594	338.973	38.000	0.000
219.900	48.317	-859.371	29.023	32.434	1.000	-42.378	338.967	38.000	0.000
220.000	48.122	-854.407	29.024	32.429	1.000	-42.226	338.976	38.487	0.000
220.100	47.927	-866.594	29.023	32.427	1.000	-42.019	338.992	38.500	0.000
220.200	47.761	-851.501	29.024	32.428	1.000	-41.797	338.988	38.500	0.000
220.300	47.583	-864.760	29.023	32.427	1.000	-41.721	338.998	38.500	0.000
220.400	47.394	-852.692	29.024	32.415	1.000	-41.723	339.015	38.500	0.000
220.500	47.202	-866.558	29.024	32.393	1.000	-41.775	339.033	38.500	0.000
220.600	47.032	-868.844	29.024	32.381	1.000	-41.894	339.056	38.500	0.000
220.700	46.853	-876.693	29.024	32.376	1.000	-42.442	339.100	38.500	0.000
220.800	46.663	-910.698	29.024	32.376	1.000	-43.666	339.190	38.500	0.000
220.900	46.463	-931.715	29.024	32.376	1.000	-44.996	339.282	38.500	0.000
221.000	46.268	-967.190	29.024	32.375	1.000	-46.227	339.373	38.500	0.000
221.100	46.047	-983.029	29.024	32.370	1.000	-47.744	339.484	38.500	0.000
221.200	45.835	-1028.724	29.024	32.349	1.000	-48.825	339.564	38.500	0.000
221.300	45.635	-1037.195	29.024	32.332	1.000	-49.265	339.618	38.500	0.000
221.400	45.440	-1064.402	29.024	32.325	1.000	-49.344	339.646	38.500	0.000
221.500	45.205	-1052.394	29.024	32.322	1.000	-49.372	339.665	38.500	0.000
221.600	45.002	-1069.781	29.024	32.321	1.000	-49.386	339.685	38.500	0.000
221.700	44.794	-1060.719	29.024	32.321	1.000	-49.308	339.700	38.500	0.000
221.800	44.571	-1073.860	29.024	32.317	1.000	-49.315	339.718	38.500	0.000
221.900	44.370	-1069.064	29.023	32.295	1.000	-49.065	339.724	38.500	0.000
222.000	44.147	-1073.574	29.023	32.276	1.000	-48.747	339.728	38.500	0.000
222.100	43.934	-1071.926	29.023	32.269	1.000	-48.522	339.737	38.500	0.000
222.200	43.717	-1069.327	29.023	32.266	1.000	-48.319	339.749	38.500	0.000
222.300	43.508	-1072.535	29.023	32.265	1.000	-48.015	339.747	38.500	0.000
222.400	43.309	-1068.220	29.023	32.266	1.000	-47.647	339.741	38.500	0.000
222.500	43.094	-1066.861	29.023	32.265	1.000	-47.322	339.741	38.500	0.000
222.600	42.876	-1062.583	29.023	32.251	1.000	-47.016	339.739	38.500	0.000
222.700	42.677	-1065.949	29.023	32.230	1.000	-46.703	339.735	38.500	0.000
222.800	42.457	-1059.864	29.023	32.218	1.000	-46.345	339.735	38.500	0.000
222.900	42.241	-1060.969	29.023	32.214	1.000	-46.043	339.724	38.500	0.000
223.000	42.042	-1056.946	29.023	32.213	1.000	-45.648	339.712	38.500	0.000
223.100	41.846	-1055.993	29.023	32.213	1.000	-45.321	339.723	38.500	0.000
223.200	41.628	-1051.532	29.023	32.212	1.000	-45.080	339.728	38.500	0.000
223.300	41.411	-1050.838	29.022	32.201	1.000	-44.770	339.725	38.500	0.000
223.400	41.215	-1054.937	29.022	32.179	1.000	-44.541	339.730	38.500	0.000
223.500	41.020	-1049.666	29.022	32.164	1.000	-44.280	339.728	38.500	0.000
223.600	40.823	-1052.031	29.022	32.159	1.000	-43.904	339.720	38.500	0.000
223.700	40.615	-1038.175	29.022	32.158	1.000	-43.601	339.710	38.500	0.000
223.800	40.415	-1047.146	29.022	32.157	1.000	-43.250	339.703	38.500	0.000
223.900	40.195	-1030.487	29.022	32.157	1.000	-42.912	339.700	38.500	0.000
224.000	39.996	-1048.649	29.022	32.154	1.000	-42.651	339.702	38.500	0.000
224.100	39.802	-1030.804	29.022	32.135	1.000	-42.259	339.700	38.500	0.000
224.200	39.610	-1044.188	29.022	32.118	1.000	-41.988	339.700	38.500	0.000
224.300	39.416	-1023.714	29.022	32.111	1.000	-41.730	339.699	38.500	0.000
224.400	39.220	-1039.487	29.022	32.107	1.000	-41.398	339.689	38.500	0.000
224.500	38.997	-1023.847	29.022	32.106	1.000	-41.084	339.685	38.500	0.000
224.600	38.800	-1032.789	29.022	32.107	1.000	-40.748	339.682	38.500	0.000
224.700	38.603	-1021.633	29.022	32.103	1.000	-40.435	339.677	38.500	0.000
224.800	38.393	-1022.704	29.022	32.086	1.000	-40.153	339.676	38.500	0.000
224.900	38.192	-1024.791	29.022	32.071	1.000	-39.846	339.660	38.500	0.000
225.000	37.998	-1013.219	29.022	32.064	1.000	-39.605	339.652	38.500	0.000
225.100	37.805	-1028.108	29.022	32.061	1.000	-39.307	339.657	38.500	0.000
225.200	37.606	-1008.210	29.022	32.060	1.000	-38.987	339.654	38.500	0.000
225.300	37.400	-1026.567	29.022	32.060	1.000	-38.679	339.642	38.500	0.000
225.400	37.207	-1006.120	29.022	32.059	1.000	-38.412	339.638	38.500	0.000
225.500	37.017	-1015.009	29.022	32.050	1.000	-38.183	339.635	38.500	0.000
225.600	36.820	-1007.912	29.022	32.034	1.000	-37.953	339.632	38.500	0.000
225.700	36.629	-1007.967	29.022	32.026	1.000	-37.730	339.633	38.500	0.000
225.800	36.432	-1022.661	29.022	32.022	1.000	-37.537	339.632	38.500	0.000
225.900	36.235	-1008.820	29.022	32.022	1.000	-37.299	339.633	38.500	0.000
226.000	36.041	-1021.340	29.022	32.022	1.000	-36.953	339.627	38.500	0.000
226.100	35.862	-999.660	29.022	32.020	1.000	-36.703	339.628	38.500	0.000
226.200	35.692	-1010.653	29.021	32.015	1.000	-36.475	339.626	38.500	0.000
226.300	35.504	-1003.554	29.021	32.001	1.000	-36.205	339.622	38.500	0.000
226.400	35.299	-997.779	29.021	31.993	1.000	-36.044	339.631	38.500	0.000
226.500	35.115	-1012.542	29.021	31.990	1.000	-35.803	339.627	38.500	0.000
226.600	34.923	-995.487	29.021	31.988	1.000	-35.441	339.610	38.500	0.000
226.700	34.730	-1006.809	29.021	31.987	1.000	-35.184	339.603	38.500	0.000
226.800	34.534	-990.714	29.021	31.987	1.000	-34.966	339.604	38.500	0.000
226.900	34.338	-990.256	29.021	31.985	1.000	-34.724	339.596	38.500	0.000
227.000	34.165	-1003.090	29.020	31.976	1.000	-34.487	339.594	38.500	0.000
227.100	33.968	-985.305	29.020	31.967	1.000	-34.190	339.597	38.500	0.000
227.200	33.792	-999.636	29.020	31.963	1.000	-34.011	339.602	38.500	0.000
227.300	33.613	-986.481	29.020	31.962	1.000	-33.825	339.600	38.500	0.000
227.400	33.415	-985.692	29.020	31.962	1.000	-33.622	339.596	38.500	0.000
227.500	33.214	-1001.978	29.020	31.962	1.000	-33.358	339.592	38.500	0.000
227.600	33.027	-983.145	29.019	31.960	1.000	-33.015	339.586	38.500	0.000
227.700	32.861	-991.476	29.019	31.955	1.000	-32.781	339.582	38.500	0.000
227.800	32.675	-982.938	29.018	31.949	1.000	-32.619	339.580	38.500	0.000
227.900	32.481	-976.099	29.018	31.946	1.000	-32.327	339.565	38.500	0.000
228.000	32.291	-993.141	29.018	31.945	1.000	-32.028	339.559	38.500	0.000
228.100	32.126	-974.624	29.018	31.945	1.000	-31.883	339.570	38.500	0.000
228.200	31.946	-980.620	29.018	31.946	1.000	-31.724	339.574	38.500	0.000
228.300	31.749	-988.973	29.018	31.944	1.000	-31.648	339.576	38.500	0.000
228.400	31.554	-977.385	29.018	31.942	1.000	-31.601	339.582	38.500	0.000
228.500	31.385	-996.815	29.018	31.939	1.000	-31.322	339.580	38.500	0.000
228.600	31.214	-983.616	29.018	31.936	1.000	-30.948	339.564	38.500	0.000
228.700	31.025	-974.245	29.018	31.934	1.000	-30.736	339.563	38.500	0.000
228.800	30.834	-995.345	29.018	31.935	1.000	-30.568	339.562	38.500	0.000
228.900	30.643	-975.780	29.018	31.935	1.000	-30.378	339.553	38.500	0.000
229.000	30.467	-976.281	29.018	31.934	1.000	-30.189	339.553	38.500	0.000
229.100	30.296	-994.860	29.017	31.933	1.000	-29.937	339.553	38.500	0.000
229.200	30.108	-973.204	29.017	31.932	1.000	-29.794	339.560	38.500	0.000
229.300	29.913	-980.420	29.017	31.932	1.000	-29.735	339.560	38.500	0.000
229.400	29.748	-993.121	29.017	31.932	1.000	-29.556	339.555	38.500	0.000
229.500	29.572	-976.822	29.017	31.932	1.000	-29.329	339.564	38.500	0.000
229.600	29.377	-985.526	29.017	31.932	1.000	-29.099	339.561	38.500	0.000
229.700	29.201	-988.567	29.017	31.932	1.000	-28.992	339.558	38.500	0.000
229.800	29.029	-975.689	29.017	31.932	1.000	-28.801	339.556	38.500	0.000
229.900	28.843	-987.045	29.016	31.936	1.000	-28.840	339.560	38.500	0.000
230.000	28.648	-998.448	29.016	31.938	1.000	-29.045	339.581	38.500	0.000
230.100	28.453	-998.524	29.016	31.940	1.000	-29.294	339.613	38.500	0.000
230.200	28.258	-1024.867	29.016	31.940	1.000	-30.049	339.665	38.500	0.000
230.300	28.061	-1068.125	29.016	31.941	1.000	-32.083	339.796	38.500	0.000
230.400	27.848	-1138.210	29.016	31.940	1.000	-33.758	339.911	38.500	0.000
230.500	27.632	-1218.709	29.015	31.942	1.000	-34.151	339.958	38.500	0.000
230.600	27.409	-1242.962	29.015	31.947	1.000	-33.866	339.952	38.500	0.000
230.700	27.191	-1224.824	29.014	31.954	1.000	-33.541	339.941	38.500	0.000
230.800	26.961	-1232.667	29.014	31.957	1.000	-33.198	339.925	38.500	0.000
230.900	26.747	-1237.593	29.014	31.959	1.000	-32.843	339.907	38.500	0.000
231.000	26.530	-1213.844	29.014	31.959	1.000	-32.454	339.902	38.500	0.000
231.100	26.312	-1216.623	29.014	31.959	1.000	-32.065	339.900	38.500	0.000
231.200	26.082	-1232.139	29.014	31.959	1.000	-31.767	339.889	38.500	0.000
231.300	25.868	-1211.436	29.013	31.965	1.000	-31.365	339.874	38.500	0.000
231.400	25.644	-1208.147	29.012	31.976	1.000	-31.061	339.865	38.500	0.000
231.500	25.429	-1226.271	29.012	31.983	1.000	-31.242	339.887	38.500	0.000
231.600	25.206	-1236.037	29.012	31.987	1.000	-31.554	339.914	38.500	0.000
231.700	24.970	-1256.967	29.012	31.989	1.000	-31.724	339.933	38.500	0.000
231.800	24.751	-1288.729	29.012	31.989	1.000	-31.666	339.946	38.500	0.000
231.900	24.522	-1302.610	29.012	31.989	1.000	-31.355	339.937	38.500	0.000
232.000	24.291	-1285.634	29.011	31.994	1.000	-30.935	339.922	38.500	0.000
232.100	24.056	-1286.927	29.010	32.007	1.000	-30.586	339.915	38.500	0.000
232.200	23.830	-1301.518	29.010	32.018	1.000	-30.203	339.905	38.500	0.000
232.300	23.600	-1284.162	29.010	32.022	1.000	-29.839	339.892	38.500	0.000
232.400	23.367	-1275.366	29.010	32.024	1.000	-29.446	339.873	38.500	0.000
232.500	23.146	-1283.038	29.010	32.024	1.000	-29.059	339.861	38.500	0.000
232.600	22.914	-1286.640	29.010	32.024	1.000	-28.726	339.853	38.500	0.000
232.700	22.701	-1268.404	29.010	32.027	1.000	-28.324	339.841	38.500	0.000
232.800	22.482	-1267.712	29.009	32.040	1.000	-27.928	339.829	38.500	0.000
232.900	22.245	-1276.741	29.008	32.056	1.000	-27.595	339.808	38.500	0.000
233.000	22.025	-1274.289	29.008	32.064	1.000	-27.282	339.795	38.500	0.000
233.100	21.795	-1258.492	29.008	32.068	1.000	-26.964	339.789	38.500	0.000
233.200	21.578	-1260.658	29.008	32.069	1.000	-26.615	339.779	38.500	0.000
233.300	21.356	-1268.808	29.008	32.070	1.000	-26.256	339.767	38.500	0.000
233.400	21.139	-1266.310	29.008	32.072	1.000	-25.925	339.753	38.500	0.000
233.500	20.919	-1252.225	29.008	32.086	1.000	-25.611	339.742	38.500	0.000
233.600	20.685	-1258.866	29.008	32.106	1.000	-25.258	339.728	38.500	0.000
233.700	20.466	-1264.772	29.008	32.117	1.000	-24.911	339.713	38.500	0.000
233.800	20.245	-1261.288	29.008	32.120	1.000	-24.547	339.701	38.500	0.000
233.900	20.025	-1241.155	29.008	32.121	1.000	-24.055	339.671	38.500	0.000
234.000	19.820	-1234.505	29.008	32.122	1.000	-23.622	339.640	38.500	0.000
234.100	19.599	-1231.324	29.008	32.123	1.000	-22.958	339.617	38.500	0.000
234.200	19.379	-1206.738	29.007	32.132	1.000	-22.248	339.585	38.500	0.000
234.300	19.183	-1167.158	29.007	32.154	1.000	-21.378	339.541	38.500	0.000
234.400	18.988	-1132.950	29.007	32.171	1.000	-20.616	339.506	38.500	0.000
234.500	18.794	-1117.361	29.007	32.178	1.000	-20.217	339.483	38.500	0.000
234.600	18.601	-1115.296	29.007	32.180	1.000	-19.980	339.473	38.500	0.000
234.700	18.406	-1117.875	29.007	32.180	1.000	-19.704	339.467	38.500	0.000
234.800	18.212	-1099.033	29.007	32.181	1.000	-19.460	339.457	38.500	0.000
234.900	18.019	-1100.750	29.006	32.190	1.000	-19.359	339.443	38.500	0.000
235.000	17.825	-1109.459	29.005	32.213	1.000	-19.160	339.437	38.500	0.000
235.100	17.631	-1115.359	29.005	32.235	1.000	-18.922	339.437	38.500	0.000
235.200	17.435	-1110.366	29.005	32.243	1.000	-18.756	339.430	38.500	0.000
235.300	17.243	-1100.600	29.005	32.245	1.000	-18.469	339.418	38.500	0.000
235.400	17.053	-1113.747	29.005	32.246	1.000	-18.166	339.404	38.500	0.000
235.500	16.857	-1108.375	29.005	32.247	1.000	-17.955	339.398	38.500	0.000
235.600	16.662	-1110.167	29.005	32.250	1.000	-17.643	339.387	38.500	0.000
235.700	16.470	-1103.981	29.004	32.270	1.000	-17.335	339.378	38.500	0.000
235.800	16.300	-1086.207	29.004	32.298	1.000	-17.080	339.365	38.500	0.000
235.900	16.129	-1100.262	29.004	32.312	1.000	-16.857	339.351	38.500	0.000
236.000	15.934	-1100.772	29.004	32.317	1.000	-16.569	339.338	38.500	0.000
236.100	15.740	-1095.680	29.004	32.319	1.000	-16.274	339.323	38.500	0.000
236.200	15.544	-1097.268	29.004	32.320	1.000	-16.026	339.318	38.500	0.000
236.300	15.350	-1078.039	29.003	32.322	1.000	-15.727	339.307	38.500	0.000
236.400	15.155	-1080.388	29.002	32.341	1.000	-15.595	339.299	38.500	0.000
236.500	14.960	-1092.587	29.002	32.370	1.000	-15.401	339.292	38.500	0.000
236.600	14.786	-1084.515	29.002	32.385	1.000	-15.224	339.283	38.500	0.000
236.700	14.618	-1094.961	29.002	32.390	1.000	-14.965	339.279	38.500	0.000
236.800	14.424	-1094.000	29.002	32.393	1.000	-14.622	339.271	38.500	0.000
236.900	14.232	-1075.213	29.002	32.394	1.000	-14.322	339.252	38.500	0.000
237.000	14.038	-1087.504	29.002	32.395	1.000	-14.122	339.242	38.500	0.000
237.100	13.837	-1097.237	29.001	32.406	1.000	-14.302	339.256	38.500	0.000
237.200	13.644	-1110.110	29.001	32.433	1.000	-14.455	339.261	38.500	0.000
237.300	13.447	-1158.806	29.001	32.456	1.000	-14.419	339.260	38.500	0.000
237.400	13.252	-1181.414	29.001	32.466	1.000	-14.445	339.273	38.500	0.000
237.500	13.059	-1192.146	29.001	32.469	1.000	-14.451	339.279	38.500	0.000
237.600	12.842	-1229.073	29.001	32.470	1.000	-14.302	339.275	38.500	0.000
237.700	12.619	-1244.031	29.001	32.470	1.000	-14.018	339.273	38.500	0.000
237.800	12.407	-1228.713	29.001	32.479	1.000	-13.696	339.256	38.500	0.000
237.900	12.186	-1228.780	29.000	32.507	1.000	-13.309	339.231	38.500	0.000
238.000	11.980	-1239.609	29.000	32.534	1.000	-12.932	339.212	38.500	0.000
238.100	11.785	-1222.639	29.000	32.545	1.000	-12.475	339.192	38.500	0.000
238.200	11.592	-1200.482	29.000	32.548	1.000	-11.913	339.160	38.500	0.000
238.300	11.398	-1191.242	29.000	32.550	1.000	-11.364	339.133	38.500	0.000
238.400	11.203	-1169.904	29.000	32.550	1.000	-10.843	339.115	38.500	0.000
238.500	11.007	-1133.341	29.000	32.553	1.000	-10.309	339.085	38.500	0.000
238.600	10.813	-1109.337	28.999	32.573	1.000	-9.796	339.057	38.500	0.000
238.700	10.616	-1099.584	28.999	32.604	1.000	-9.334	339.033	38.500	0.000
238.800	10.443	-1072.431	28.999	32.622	1.000	-8.886	339.004	38.500	0.000
238.900	10.278	-1030.472	28.999	32.627	1.000	-8.435	338.973	38.500	0.000
239.000	10.103	-1009.088	28.999	32.629	1.000	-8.064	338.955	38.500	0.000
239.100	9.950	-1003.668	28.999	32.631	1.000	-7.799	338.949	38.500	0.000
239.200	9.778	-1005.472	28.999	32.633	1.000	-7.761	338.947	38.500	0.000
239.300	9.594	-1031.577	28.999	32.650	1.000	-7.733	338.945	38.500	0.000
239.400	9.412	-1068.689	28.998	32.681	1.000	-7.524	338.935	38.500	0.000
239.500	9.241	-1085.294	28.998	32.700	1.000	-7.218	338.924	38.500	0.000
239.600	9.058	-1075.358	28.998	32.708	1.000	-6.996	338.909	38.500	0.000
239.700	8.876	-1057.144	28.998	32.710	1.000	-6.915	338.897	38.500	0.000
239.800	8.707	-1061.284	28.998	32.711	1.000	-6.874	338.895	38.500	0.000
239.900	8.524	-1094.418	28.998	32.710	1.000	-6.881	338.899	38.500	0.000
240.000	8.333	-1142.987	28.998	32.722	1.000	-6.937	338.907	38.500	0.000
240.100	8.124	-1198.722	28.998	32.751	1.000	-6.940	338.913	38.500	0.000
240.200	7.901	-1241.079	28.998	32.779	1.000	-6.883	338.913	38.500	0.000
240.300	7.683	-1273.060	28.998	32.789	1.000	-6.868	338.917	38.500	0.000
240.400	7.464	-1318.731	28.998	32.793	1.000	-6.903	338.914	38.500	0.000
240.500	7.235	-1378.478	28.998	32.795	1.000	-6.810	338.909	38.500	0.000
240.600	6.992	-1404.400	28.998	32.795	1.000	-6.622	338.902	38.500	0.000
240.700	6.746	-1410.598	28.997	32.802	1.000	-6.444	338.895	38.500	0.000
240.800	6.499	-1421.660	28.997	32.829	1.000	-6.194	338.884	38.500	0.000
240.900	6.248	-1441.052	28.997	32.858	1.000	-5.944	338.865	38.500	0.000
241.000	5.999	-1447.929	28.997	32.871	1.000	-5.625	338.848	38.500	0.000
241.100	5.757	-1439.103	28.996	32.874	1.000	-5.066	338.825	38.500	0.000
241.200	5.522	-1384.730	28.997	32.876	1.000	-4.414	338.792	38.500	0.000
241.300	5.312	-1302.050	28.997	32.877	1.000	-3.815	338.755	38.500	0.000
241.400	5.107	-1227.676	28.996	32.882	1.000	-3.277	338.719	38.500	0.000
241.500	4.904	-1160.215	28.996	32.909	1.000	-2.778	338.694	38.500	0.000
241.600	4.723	-1085.098	28.995	32.939	1.000	-2.425	338.679	38.500	0.000
241.700	4.542	-1021.676	28.996	32.953	1.000	-2.083	338.661	38.500	0.000
241.800	4.386	-963.477	28.996	32.956	1.000	-1.726	338.637	38.500	0.000
241.900	4.234	-903.104	28.996	32.958	1.000	-1.433	338.615	38.500	0.000
242.000	4.107	-844.717	28.996	32.959	1.000	-1.175	338.602	38.500	0.000
242.100	3.957	-817.940	28.995	32.964	1.000	-0.948	338.592	38.500	0.000
242.200	3.825	-832.813	28.995	33.000	1.000	-0.740	338.576	38.500	0.000
242.300	3.704	-844.780	28.995	33.026	1.000	-0.563	338.565	38.500	0.000
242.400	3.568	-790.724	28.995	33.037	1.000	-0.394	338.552	38.500	0.000
242.500	3.449	-738.694	28.995	33.040	1.000	-0.234	338.535	38.500	0.000
242.600	3.341	-715.310	28.995	33.042	1.000	-0.100	338.535	38.500	0.000
242.700	3.195	-705.368	28.995	33.042	1.000	0.015	338.536	38.500	0.000
242.800	3.079	-782.259	28.995	33.046	1.000	0.090	338.524	38.500	0.000
242.900	2.912	-953.922	28.995	33.073	1.000	0.118	338.514	38.500	0.000
243.000	2.758	-1088.706	28.995	33.103	1.000	0.136	338.521	38.500	0.000
243.100	2.558	-1286.146	28.995	33.114	1.000	0.171	338.524	38.500	0.000
243.200	2.337	-1331.685	28.995	33.119	1.000	0.250	338.514	38.500	0.000
243.300	2.127	-1261.966	28.995	33.121	1.000	0.316	338.507	38.500	0.000
243.400	1.932	-1245.195	28.995	33.121	1.000	0.323	338.511	38.500	0.000
243.500	1.728	-1219.043	28.995	33.121	1.000	0.297	338.510	38.500	0.000
243.600	1.489	-1210.418	28.995	33.122	1.000	0.269	338.513	38.500	0.000
243.700	1.293	-1228.708	28.995	33.121	1.000	0.251	338.516	38.500	0.000
243.800	1.099	-1228.050	28.995	33.121	1.000	0.231	338.513	38.500	0.000
243.900	0.900	-1229.962	28.995	33.123	1.000	0.212	338.513	38.500	0.000
244.000	0.679	-1234.195	28.995	33.137	1.000	0.203	338.523	38.500	0.000
244.100	0.468	-1216.203	28.994	33.177	1.000	0.194	338.534	38.500	0.000
244.200	0.275	-1190.604	28.994	33.195	1.000	0.181	338.530	38.500	0.000
244.300	0.118	-990.364	28.994	33.203	1.000	0.181	338.524	38.500	0.000
244.400	0.013	-21.549	28.994	33.205	1.000	0.237	338.520	38.500	0.000
244.500	-0.094	-90.185	28.994	33.206	1.000	0.313	338.517	38.500	0.000
244.600	-0.058	-140.083	28.994	33.207	1.000	0.382	338.521	38.500	0.000
244.700	0.013	-12.291	28.994	33.212	1.000	0.315	338.529	38.500	0.000
244.800	0.027	-12.261	28.994	33.241	1.000	0.202	338.530	38.500	0.000
244.900	0.002	-12.489	28.994	33.268	1.000	0.170	338.530	38.500	0.000
245.000	-0.049	-12.544	28.994	33.278	1.000	0.163	338.532	38.500	0.000
245.100	-0.042	-12.476	28.994	33.281	1.000	0.163	338.532	38.500	0.000
245.200	0.010	-12.457	28.994	33.282	1.000	0.159	338.532	38.500	0.000
245.300	0.009	-12.523	28.994	33.283	1.000	0.157	338.539	38.500	0.000
245.400	0.003	-12.279	28.994	33.289	1.000	0.158	338.548	38.500	0.000
245.500	-0.045	-12.415	28.993	33.315	1.000	0.160	338.545	38.500	0.000
245.600	0.010	-12.460	28.993	33.345	1.000	0.165	338.540	38.500	0.000
245.700	0.010	-12.296	28.993	33.356	1.000	0.168	338.542	38.500	0.000
245.800	0.010	-12.284	28.993	33.360	1.000	0.169	338.546	38.500	0.000
245.900	0.010	-12.452	28.993	33.362	1.000	0.169	338.546	38.500	0.000
246.000	0.010	-12.503	28.993	33.363	1.000	0.169	338.550	38.500	0.000
246.100	0.010	-12.369	28.993	33.364	1.000	0.171	338.549	38.500	0.000
246.200	0.009	-12.322	28.993	33.379	1.000	0.171	338.546	38.500	0.000
246.300	0.010	-12.205	28.993	33.413	1.000	0.169	338.546	38.500	0.000
246.400	0.009	-12.339	28.993	33.430	1.000	0.169	338.550	38.500	0.000
246.500	0.010	-12.375	28.993	33.437	1.000	0.169	338.549	38.500	0.000
246.600	0.010	-12.411	28.993	33.438	1.000	0.169	338.544	38.500	0.000
246.700	0.010	-12.453	28.993	33.438	1.000	0.169	338.554	38.500	0.000
246.800	0.010	-12.543	28.993	33.440	1.000	0.169	338.559	38.500	0.000
246.900	0.010	-12.434	28.993	33.451	1.000	0.168	338.553	38.500	0.000
247.000	0.009	-12.305	28.993	33.486	0.938	0.169	338.552	38.500	0.000
247.100	0.010	-12.369	28.993	33.505	0.000	0.172	338.564	38.500	0.000
247.200	0.010	-12.340	28.993	33.511	0.000	0.171	338.567	38.500	0.000
247.300	0.010	-12.419	28.993	33.514	0.000	0.169	338.572	38.500	0.000
247.400	0.010	-12.552	28.993	33.515	0.000	0.169	338.568	38.500	0.000
247.500	0.010	-12.550	28.992	33.517	0.000	0.171	338.564	38.500	0.000
247.600	0.010	-12.510	28.992	33.520	0.000	0.171	338.563	38.500	0.000
247.700	0.010	-12.412	28.992	33.549	0.000	0.169	338.564	38.500	0.000
247.800	0.008	-12.488	28.992	33.576	0.000	0.169	338.573	38.500	0.000
247.900	0.010	-12.612	28.992	33.586	0.000	0.169	338.567	38.500	0.000
248.000	0.009	-12.374	28.992	33.589	0.000	0.170	338.570	38.500	0.000
248.100	0.010	-12.423	28.992	33.591	0.000	0.170	338.573	38.500	0.000
248.200	0.010	-12.690	28.992	33.590	0.000	0.172	338.577	38.500	0.000
248.300	0.009	-12.505	28.992	33.592	0.000	0.172	338.578	38.500	0.000
248.400	0.010	-12.199	28.992	33.618	0.000	0.169	338.581	38.500	0.000
248.500	0.010	-12.407	28.992	33.645	0.000	0.170	338.580	38.500	0.000
248.600	0.010	-12.376	28.992	33.654	0.000	0.171	338.583	38.500	0.000
248.700	0.010	-12.545	28.992	33.659	0.000	0.170	338.586	38.500	0.000
248.800	0.010	-12.338	28.992	33.659	0.000	0.171	338.587	38.500	0.000
248.900	0.010	-12.441	28.992	33.660	0.000	0.171	338.580	38.500	0.000
249.000	0.010	-12.336	28.992	33.661	0.000	0.169	338.577	38.500	0.000
249.100	0.010	-12.334	28.992	33.674	0.000	0.170	338.595	38.500	0.000
249.200	0.010	-12.269	28.991	33.707	0.000	0.170	338.600	38.500	0.000
249.300	0.010	-12.584	28.992	33.722	0.000	0.170	338.600	38.500	0.000
249.400	0.010	-12.374	28.992	33.728	0.000	0.170	338.600	38.500	0.000
249.500	0.010	-12.480	28.992	33.729	0.000	0.170	338.594	38.500	0.000
249.600	0.010	-12.338	28.992	33.730	0.000	0.170	338.586	38.500	0.000
249.700	0.010	-12.444	28.992	33.731	0.000	0.172	338.599	38.500	0.000
249.800	0.010	-12.336	28.992	33.739	0.000	0.172	338.599	38.500	0.000
249.900	0.010	-12.337	28.992	33.772	0.000	0.170	338.595	38.500	0.000
250.000	0.009	-12.444	28.992	33.789	0.000	0.171	338.602	38.500	0.000
